Timestamp,O1,Oz,O2,PO3,PO4,TP7,TP8,Fz
0.0,3.574029960873304e-12,-5.471179065352771e-13,9.379164112033322e-13,-3.126388037344441e-12,-5.471179065352771e-13,3.836930773104541e-13,-2.1458390619955026e-12,-3.808509063674137e-12
0.004,8.66880880687853,17.826248771999005,19.02312395612085,5.723767641103855,26.680577104384973,-6.711255950068789,4.878612471269683,-6.854498091410079
0.008,14.071097065885233,30.32195232403962,32.99593339966758,9.375176827495778,46.402198376001714,-11.359822028366153,8.086582234020092,-11.716392958559325
0.012,14.541088761528826,34.635699716487146,39.12370448683362,9.916027351130595,55.259968935405766,-12.828150677322654,8.747871760278343,-13.403217144689407
0.016,10.753341277774012,31.555055445772677,37.936931341850865,7.817303996454015,53.895295615957764,-11.408152010713692,7.1342073780151125,-11.971920742433895
0.02,5.243935448848497,24.8079131620534,32.66064270951133,4.735100546136845,46.744237322211234,-8.565191992993007,4.390543941392458,-8.58716789178608
0.024,0.9948585868474993,18.92843879831722,27.297454099472095,2.5938530913630373,39.505141364075286,-6.134373812140765,1.8301779290449716,-4.905995614227109
0.028,-0.09519935088518139,16.940549070961126,24.548581484029924,2.5996308019002754,36.27376191670976,-5.389287524659281,0.23054203804204576,-2.3160665906066953
0.032,1.9653431956183027,19.11142527205944,24.71479716837251,4.715548432065681,37.86093877279868,-6.483045527763593,-0.45984878184430045,-1.407338855605687
0.036000000000000004,5.524363459318302,23.334559924659285,26.081912173756667,7.8481999406390095,42.053150287172166,-8.522603811125208,-0.8775247647610556,-1.9004481740737447
0.04,8.397160144183673,26.759460440428214,26.4006211316007,10.578901489042451,45.46203867706892,-10.179043301877627,-1.6632365135080676,-2.9770396561171424
0.044,9.097025475987067,27.54359792575789,24.445242739631926,11.96817312675002,45.6949241460203,-10.460117607148447,-2.9392696072616005,-3.762958859821552
0.048,7.51729371096846,25.73400771059635,20.721611185762892,11.977616756463132,42.61238830785642,-9.222249134371538,-4.194924246050583,-3.7090367153749213
0.052000000000000005,4.7695508776917706,22.90146966970159,17.009170523390083,11.320968979363737,38.09850250805975,-7.177047658357907,-4.630589065518379,-2.723473847185602
0.056,2.3912355051775336,20.92345163508522,15.147076175693485,10.90016576514375,34.68197144100925,-5.443858785441705,-3.7276821704523044,-1.0783615099789614
0.06,1.4789293478238292,20.79992032010723,15.894655815085013,11.215816107925718,33.98170361689857,-4.9283963416093,-1.6679650120214689,0.7856973384637058
0.064,2.204226030075276,22.173649224824693,18.544861842975838,12.096696718904656,35.86393509538131,-5.861609101808668,0.6852389243483685,2.4430728519423752
0.068,3.9143594516234472,23.7679228571548,21.452696383684742,12.866731065018204,38.73121370018592,-7.734186084528233,2.2286342245333586,3.577390461626635
0.07200000000000001,5.6511572499734655,24.35319458502409,23.0849336558014,12.804062812618316,40.640582485309096,-9.61870556548898,2.2228082284488124,4.001924119410759
0.076,6.7141123405774366,23.563530775676085,22.909154293727266,11.583966312350256,40.49227063793654,-10.673911583786705,0.705140944994433,3.6571565974615368
0.08,6.944534593083006,22.070597332841714,21.585247072487135,9.436212919345362,38.58003330380342,-10.553385204302785,-1.527341297099099,2.6195495869805256
0.084,6.607697152398792,21.02063051857328,20.382532258817943,6.950177929838258,36.200741917142935,-9.508248951290554,-3.348711356363431,1.1224328351967614
0.088,6.066054455699486,21.199882736937028,20.26486787382308,4.692943737094065,34.6956547063452,-8.173871072091117,-3.89210304286825,-0.46951792600248154
0.092,5.512221930487527,22.5077366061546,21.267127893535584,2.9086137575981326,34.59891850617963,-7.194412975089357,-2.952662320060874,-1.7663821110531615
0.096,4.929732210257129,24.06274837244353,22.547262573308767,1.4845806556614285,35.41894415393098,-6.907630424243969,-0.9964176472986424,-2.5115099992259644
0.1,4.258690684964655,24.841719778876143,23.03055288887816,0.17054908669609503,36.13442729815142,-7.24513811537966,1.1845869807162046,-2.710223877548799
0.10400000000000001,3.5630941399327725,24.34853600948037,22.16979780241439,-1.1300587100458621,35.96520368788375,-7.849190180305634,2.940318567022885,-2.615410003969373
0.108,3.0584758546311974,22.902517898786837,20.329203689271207,-2.207319658868716,34.91417669008266,-8.316872092369486,4.07919180296787,-2.5656697093044585
0.112,2.9878620183903024,21.40568774667055,18.582335419495102,-2.629025855923569,33.75962007734431,-8.424696022326557,4.873057199243938,-2.7622206437680035
0.116,3.4503915633213893,20.7799948667937,18.079085226649042,-2.0011209897445674,33.545638123585974,-8.2142634552809,5.797215704178946,-3.105748969412076
0.12,4.339130092590423,21.472597509788066,19.384160059864,-0.23178516407088523,34.93436402131475,-7.915033423095203,7.193181658649252,-3.207369191906963
0.124,5.400189706098274,23.262744977683028,22.150201550974792,2.3506317204405995,37.76562245326036,-7.7601235409816525,9.051651135882288,-2.567545233170307
0.128,6.379947587970676,25.462599694863073,25.293852100495926,5.094803248012013,41.095984206859704,-7.814550237639118,11.027559901737717,-0.8319658090323117
0.132,7.158646259160321,27.338236923673307,27.55496232538365,7.283840396102388,43.68580495235469,-7.921456005721197,12.645279526784044,1.9998570072409763
0.136,7.7670706400867005,28.459629177112706,28.112609572395318,8.406187798678776,44.63091340826996,-7.802436659841391,13.552566598022352,5.513765339004436
0.14,8.297854088955212,28.817486051563513,26.931494602741893,8.311844670124831,43.7985009069795,-7.246150439769913,13.67361846672284,9.006830044554626
0.14400000000000002,8.768966827260769,28.65054226666419,24.670917424645516,7.198473306582052,41.79842625569084,-6.262283211892466,13.192251591178739,11.767065438829547
0.148,9.061098860042478,28.185320944091643,22.26967191998726,5.46692162449969,39.57995766580801,-5.123269283460182,12.40487493355236,13.36337865482259
0.152,8.999477362209412,27.50810569789804,20.490615874482614,3.5628813032432447,37.941125103844456,-4.2631591931807336,11.573491394690095,13.811656930076147
0.156,8.519840377550587,26.633741458575244,19.659520194628282,1.8790889431796742,37.22396216768617,-4.083673629992177,10.875415874390477,13.54484428916755
0.16,7.781571095580212,25.68078955373926,19.666667059525103,0.7164510587440915,37.31930839541216,-4.772763843521389,10.434280075860816,13.205926325366946
0.164,7.103221650765704,24.92862297402109,20.135942703638253,0.26995809580293795,37.857667473665906,-6.210192051138215,10.374039758010131,13.375496974789286
0.168,6.759291178258206,24.69715164139201,20.627932320088064,0.6027690183283525,38.45059100147782,-8.010244039182133,10.819368140294728,14.33213901811861
0.17200000000000001,6.7725076024485915,25.125561843838064,20.787640409830814,1.6088270611455258,38.85039731009194,-9.685891416337455,11.807014856903173,15.933271521039558
0.176,6.861812743338724,26.019242139205968,20.416674986711023,3.007859889266264,38.9746826215436,-10.85359849298662,13.160900102862808,17.662975870285663
0.18,6.616401828490819,26.921117080702206,19.488700323476973,4.41121189496786,38.85275532779441,-11.36933687213773,14.435421391222803,18.829595301409462
0.184,5.764890206313186,27.35034929482657,18.121236169202493,5.446953434950988,38.522621675131724,-11.324091423899048,15.014530439721256,18.858106488036398
0.188,4.3852471359298555,27.101866107079168,16.534549801447607,5.902838647346314,37.99535511133217,-10.91689094809145,14.363730973594457,17.567907056661404
0.192,2.9278975065823403,26.42838760792401,15.019985182715729,5.8238253134621765,37.319068856882424,-10.289876703529316,12.32634098467474,15.294219211324801
0.196,2.0130005256008765,25.95850481918773,13.895889661726107,5.499296975916312,36.66488433386077,-9.429218608635296,9.29673846020702,12.777830964052072
0.2,2.115110902406034,26.378112811742323,13.43061715282456,5.327832984846147,36.34269649874497,-8.191482644004907,6.132549663652583,10.85303101606572
0.20400000000000001,3.281009438489072,27.98493866406776,13.723109673309187,5.604936825927167,36.632920514375165,-6.432230196388765,3.8140941821664605,10.076578183189568
0.20800000000000002,5.058383340172163,30.398767415026654,14.611116401358622,6.337606078874655,37.53487267796827,-4.1699487619226545,2.9873494256218542,10.456018492786114
0.212,6.707836178846858,32.63785653937312,15.703643877390212,7.205880944187223,38.629436055278234,-1.6889072283755837,3.6358161465997085,11.427336194208202
0.216,7.581819125352631,33.553323087013744,16.551485139425658,7.7060623663541055,39.18385610784731,0.4931661712207145,5.078213735137069,12.120401791990254
0.22,7.466493696485678,32.430436353156274,16.88515232208764,7.422639363693786,38.51377985400925,1.797866146253888,6.327784254866266,11.811298011668107
0.224,6.692422102884304,29.398184364857357,16.773703392154054,6.295941660243711,36.3786162915772,1.847381847674157,6.641598050554869,10.358367766000107
0.228,5.971417861959331,25.446643964197648,16.613753229455654,4.7372615579380835,33.20798648086291,0.6723336944190414,5.956753275510575,8.357911099044586
0.232,6.046361937570541,22.025059728331087,16.93988002291291,3.503678533737519,29.99984256756241,-1.2592170823814257,4.950763274208029,6.88571224222099
0.23600000000000002,7.31285482227981,20.361834729256643,18.110305804192787,3.3575617112430027,27.855206931626213,-3.214113508973636,4.673259071664194,6.944994707950393
0.24,9.60942925479928,20.867377548989776,20.042799707044445,4.658071084478285,27.400667708071385,-4.506896357120819,5.929287451728069,8.878993780275515
0.244,12.268573214657845,22.926090900184697,22.1672598879211,7.094783146924064,28.429461290644333,-4.807442458796277,8.752219491174966,12.073447878522288
0.248,14.382092430606363,25.17703162669046,23.629725099093378,9.72415572657348,29.97402110566047,-4.281680559082449,12.277280535395686,15.15778638404123
0.252,15.152439728283941,26.14535852174899,23.667570078402274,11.334536984784611,30.791993442341973,-3.473828072499039,15.12220578605772,16.654026925374822
0.256,14.179916082062139,24.918527663816604,21.979725130513657,10.992166377698814,30.022275016086077,-2.9856160601055173,16.09484126393616,15.74462653341189
0.26,11.595381190508675,21.565980098135903,18.917472771605738,8.50446788612386,27.676232329161824,-3.133335698213486,14.835516594492038,12.71587476317756
0.264,7.9998666002379935,17.090688751236037,15.373847696054415,4.549867543084735,24.6591263961349,-3.7777078401146618,12.02207026315434,8.803571472442638
0.268,4.237319773068567,12.93185076387335,12.393578135456572,0.37296124719796353,22.271630212353337,-4.425024300549591,9.002829777702459,5.503451458947346
0.272,1.0846475382253242,10.260146784036166,10.683271174460788,-2.821479741192311,21.444194548883722,-4.540707771341349,7.061906620966676,3.7419969791563403
0.276,-1.0141148920683882,9.434523503460923,10.284007995481776,-4.4522087377397295,22.158678913828716,-3.8938693916249854,6.73408031290713,3.394569191608504
0.28,-2.035797925840768,9.93844563824109,10.62716572825043,-4.7883959784116,23.459326821112036,-2.7307799314653387,7.569552633873824,3.437925462982914
0.28400000000000003,-2.269723222573324,10.799488917168928,10.94790138258424,-4.680545257827545,24.06738282962025,-1.6574233121391515,8.500729502438793,2.6825613247645705
0.28800000000000003,-2.0882036580860994,11.230727802629406,10.803205131200926,-4.94999270393887,23.22585148755209,-1.2843745799536386,8.576359844188273,0.6528630639997708
0.292,-1.7417978359589963,11.089617264321603,10.359687767149682,-5.817492586231144,21.230326714689237,-1.8462618372517756,7.598666046806752,-1.9506391509938688
0.296,-1.293594936023796,10.879432597552707,10.257067613403668,-6.74016504726696,19.28690892278441,-3.0420392155948477,6.244022579839591,-3.551411684202481
0.3,-0.7055642613168001,11.323106811686777,11.116428981081565,-6.788051075917634,18.7696319224614,-4.233313599972936,5.554231648772898,-2.667925975624417
0.304,-0.037105693897476755,12.749119559304052,12.96419131265489,-5.370460565128832,20.281882278566396,-4.908029502446874,6.090454785881649,0.9829092532542845
0.308,0.3757922252799508,14.668236422312535,14.926060822557845,-2.8656854694132328,23.079107397456347,-5.119197751897271,7.287936867725675,5.957364412755833
0.312,-0.10401149149309052,15.819343358854802,15.422368545922676,-0.7215022375506774,25.224315096436236,-5.59948544135646,7.4583898732479454,9.550091149606189
0.316,-2.209189409476095,14.71751661486573,12.84853253955957,-0.8639738018918957,24.473002967411794,-7.423544887384992,4.547919870302328,9.10503527904312
0.32,-6.369036431809544,10.474693260919484,6.456665101960078,-4.661482477903984,19.487767073594565,-11.362294081497986,-2.6910439945940343,3.4949739296891718
0.324,-12.32020581548742,3.4483831453616913,-3.017532378990298,-11.99689158591564,10.725691017431414,-17.27951225272558,-13.744797736042903,-6.04889976042497
0.328,-18.958502253486916,-4.664754002127737,-13.361520781144268,-21.001601818366026,0.48734918451319054,-23.92891104036285,-26.168232771919335,-16.261062038577506
0.332,-24.58447126064308,-11.409816269380334,-21.61498382647043,-28.679409354200946,-7.964921860545731,-29.3124050360158,-36.37504445929863,-23.208442543493376
0.336,-27.501280733714726,-14.574219358021505,-25.218364292535043,-32.17135695728915,-11.798599290551198,-31.47013850059735,-41.05732566846658,-24.02476429804105
0.34,-26.691977074210566,-13.100004350112417,-23.036029586363092,-30.03721822560638,-9.787528547908689,-29.3345911400883,-38.56442929479564,-18.15167445944564
0.34400000000000003,-22.258002789509092,-7.475731133715968,-15.782383810946724,-22.90316069176905,-2.719334964413008,-23.221973315749768,-29.570292801282797,-7.471255387380789
0.34800000000000003,-15.406121255361068,0.5449835028454086,-5.68392187312366,-13.155467182964582,7.092756172714269,-14.71100709055637,-16.734928254833143,4.684125977865754
0.352,-7.987089467501775,8.712382875287155,4.422669929968315,-3.853203550934766,16.858386727689428,-5.971698729399447,-3.562634253599965,15.079585934455885
0.356,-1.797531157913479,15.143795017274456,12.124594711347953,2.577125665557245,24.364735728037633,1.1054073599143166,6.970507999769235,21.862866882692238
0.36,2.0541265105054825,18.919307747793844,16.181244260584105,5.230164243720289,28.602949631359678,5.548714310810176,13.380742574143099,24.973874103360867
0.364,3.4323043508940843,20.187357099929848,16.718911442069967,4.808425582580439,29.77664574585797,7.438225114909486,15.854527786755472,25.60326711062062
0.368,3.007141880860514,19.822042247094544,14.870624281220728,2.959269787082638,28.82786075843558,7.546494191032364,15.689588751590186,25.151765627882867
0.372,1.755412874920859,18.861163559545634,12.104964464813087,1.2805013506875471,26.810829833987988,6.757927756690135,14.40232293597084,24.354518437680962
0.376,0.4117617245329317,18.018426461660113,9.584995878828074,0.5374602599843517,24.445014810438895,5.599079664883348,12.991930462429044,23.03546471939253
0.38,-0.8228948848168427,17.50276013630966,7.836208407270986,0.46065338162499625,22.029616811292968,4.102029379569503,11.691980888338321,20.51588738404846
0.384,-2.1997406204062866,17.134804034906423,6.784600715107484,0.13419440312046937,19.62035393740984,2.0098372166816802,10.219237662923893,16.323097198169577
0.388,-4.074807908208921,16.602760332945312,6.02937979799491,-1.3274545975671863,17.24571194288327,-0.858020142337252,8.25677779140414,10.709776852726685
0.392,-6.542176752067348,15.671643916455512,5.148006291294269,-4.2166523489114365,14.990494636486293,-4.319578927628844,5.835277280138442,4.6817931991102775
0.396,-9.27869106197426,14.2488619538192,3.8912722170982192,-8.061283088853585,12.931263154347544,-7.793103879316501,3.3956850467031128,-0.4526954552043023
0.4,-11.666837120584454,12.361562971397678,2.2531931138332015,-11.864662960157531,11.06885636645972,-10.521405155009985,1.5449640761823091,-3.7184880861798195
0.404,-13.105161815217249,10.12227867760594,0.451170885157957,-14.565219886326684,9.362054654611239,-11.905186197494363,0.6993809644983529,-4.908789624958317
0.40800000000000003,-13.332344166628172,7.714943537516135,-1.1523892553047954,-15.470748747346187,7.8418132537615755,-11.754229900996622,0.8457977635732448,-4.595127682775175
0.41200000000000003,-12.58198810825672,5.384374654462839,-2.168631908433583,-14.483634445744855,6.687718598902634,-10.327603918190702,1.5481844880455213,-3.748348053222358
0.41600000000000004,-11.46928947026591,3.399060191929461,-2.316922952758894,-12.06854049053791,6.168919010875129,-8.1724371530135,2.1738599166931643,-3.2261148317057913
0.42,-10.681102150391943,1.986949034088905,-1.5357123333044607,-9.038020650513621,6.472294004271447,-5.8802441424319705,2.1972846294531863,-3.4275691021961077
0.424,-10.643107827188858,1.251527539843825,-0.033917377514937286,-6.272981523516361,7.509255689750365,-3.890217202871022,1.4065728993120477,-4.256850381770254
0.428,-11.35241081291897,1.108792890148191,1.7345040430813523,-4.481449757437703,8.837039940784232,-2.4229980508164886,-0.07702982173436324,-5.3499433191105235
0.432,-12.45976980310098,1.288864107637533,3.176564030597749,-4.040130459892518,9.771681157917968,-1.5228955804282496,-1.927747922713495,-6.370180564041599
0.436,-13.532947064521107,1.4262009867417698,3.738174676017724,-4.923968729921274,9.671177358648068,-1.134611689489196,-3.7968134453823517,-7.193048203951118
0.44,-14.32383803376252,1.2309477450951603,3.1065140153239543,-6.726576983035013,8.2731189474144,-1.1713340843940383,-5.439897626834602,-7.922975663454562
0.444,-14.880594191734225,0.6410299529880747,1.348970019537345,-8.776921521173602,5.8829992048503605,-1.5455431613816657,-6.733650605680122,-8.773134661449747
0.448,-15.458066838818091,-0.1425419715409717,-1.0944259267027565,-10.348313481986203,3.282441680998606,-2.1726189196740453,-7.615167657352114,-9.90045530948007
0.452,-16.302000174969404,-0.7731830520593483,-3.5827554118524683,-10.911803229788163,1.3787849489864827,-2.97377617675148,-8.018091778444116,-11.284469759526896
0.456,-17.447283275750884,-0.9716208724270405,-5.5389820248056925,-10.339974428988995,0.772953604367178,-3.892972674497665,-7.872409253730115,-12.707349424825019
0.46,-18.639005225047967,-0.6872385156114023,-6.661457200434591,-8.95574008706154,1.5041012772888562,-4.922893555678529,-7.169043430704477,-13.837629817800021
0.464,-19.42144429189505,-0.11209515536806425,-6.981950253281653,-7.380106685636989,3.0919140916287664,-6.112600288936637,-6.033807547619954,-14.367141322825056
0.468,-19.342331329355744,0.45868227443130927,-6.760596306924753,-6.229875922840474,4.82828775647631,-7.527591737910125,-4.749003462866809,-14.140243821448713
0.47200000000000003,-18.16925489801271,0.8166883522145079,-6.301099360176339,-5.8155151033582335,6.119862529054236,-9.168363619032458,-3.6862073441092047,-13.21957275174345
0.47600000000000003,-16.011777837985164,0.9544205662791927,-5.790139807759445,-5.995125249512352,6.692153295492713,-10.909519395482842,-3.171801237815787,-11.866466926143982
0.48,-13.279532201296085,1.0618716515964808,-5.225686198550002,-6.2573147063432675,6.607269453309863,-12.513336861756578,-3.35264271568163,-10.44788856946357
0.484,-10.524269259708582,1.3987121698056395,-4.468258777632443,-6.0072562753715495,6.119508315199713,-13.725536997360727,-4.134976984013596,-9.303334152614966
0.488,-8.25231004273199,2.117736629390243,-3.380047278590828,-4.906438820276352,5.48312973719342,-14.407219686451095,-5.235559624854252,-8.623619489409457
0.492,-6.7952242867661425,3.137439744047675,-1.9757698398983439,-3.0889097201092337,4.814817908714654,-14.615913199749336,-6.326176157312203,-8.394548157712325
0.496,-6.275192012920067,4.141152445452116,-0.49545712909454886,-1.1394312893025678,4.070790882022276,-14.577097016221654,-7.190980512282142,-8.442291871586601
0.5,-6.632232028919464,4.73234549416917,0.6613424398664152,0.16579402738491034,3.149664796726036,-14.55966896501078,-7.813869321859114,-8.57368371243004
0.504,-7.666409282048306,4.657698228014652,1.1158308829677561,0.233267973360487,2.0331980873100886,-14.723904050396055,-8.349325868873033,-8.727000744061897
0.508,-9.075656962931994,3.9649060013200446,0.7061121594419411,-1.0538907655963454,0.867993538691386,-15.034561489334767,-8.99122115930031,-9.035310295731293
0.512,-10.5000726868049,2.9911707916318133,-0.4174638663179726,-3.2744260837311447,-0.07787912486989423,-15.298233371282087,-9.819786744793955,-9.752329775990798
0.516,-11.596813778171995,2.177266353360501,-1.8508262706989735,-5.666780338011242,-0.5610262830300297,-15.31034592143437,-10.722066886344317,-11.072024715849516
0.52,-12.133069346200958,1.834497408121025,-3.102459180310726,-7.475277079653748,-0.49959404666707163,-15.032657189138565,-11.426088728282139,-12.967289678670987
0.524,-12.073901442698707,1.9823669273625641,-3.7900873795098686,-8.272149695697742,-0.03949666618688208,-14.685744531625165,-11.644773092418067,-15.16227282948597
0.528,-11.61254112660921,2.343106048079245,-3.783812190733614,-8.100411146507302,0.4770004332819189,-14.674124057008363,-11.247390193149428,-17.264449999032017
0.532,-11.105239841902652,2.4917863989432525,-3.2420243431081626,-7.379819064694785,0.6153662692238084,-15.361155519708351,-10.368937531546337,-18.975783313525955
0.536,-10.924680291748198,2.078711790369195,-2.53062170501375,-6.639269116498691,-0.009563782879200566,-16.808929124821248,-9.38802713704623,-20.23651292217769
0.54,-11.28959269664264,1.0303411926515689,-2.0573398249617707,-6.231013476571653,-1.5706359597654418,-18.653437158370078,-8.775494194951289,-21.210657309470026
0.544,-12.151083161032446,-0.38000928586730875,-2.0986124311186365,-6.1771757094918485,-3.9165594899366623,-20.208561222843414,-8.888127927500925,-22.110706914307887
0.548,-13.21112247512916,-1.6347690627283993,-2.7027853429050213,-6.224609415583711,-6.575465567692553,-20.76918788451,-9.819226978259888,-22.975958440251688
0.552,-14.083624730707188,-2.2154472106860794,-3.7081146576408046,-6.066100350248595,-8.909432427996492,-19.96704830420013,-11.374682797617469,-23.55837438669672
0.556,-14.509446541973272,-1.8667678775341112,-4.8514084831036195,-5.5865316806936125,-10.383886446586153,-17.98924360459104,-13.171295793784973,-23.42174143479992
0.56,-14.487150671473472,-0.7289295333558901,-5.88734358265887,-4.9787799016493715,-10.811509568791665,-15.531222428662339,-14.794809627302783,-22.21813243528142
0.5640000000000001,-14.229092297084145,0.7286745468361472,-6.652696658819069,-4.642253799248319,-10.437111985730905,-13.483639691769138,-15.92589057588175,-19.97205608527891
0.5680000000000001,-13.980748250851924,1.9296850038277205,-7.073894059856592,-4.933302498171713,-9.816692577381719,-12.513750550393153,-16.39000525361422,-17.183660607568008
0.5720000000000001,-13.815427238318968,2.454887806901792,-7.148285092060524,-5.913511258006536,-9.536143312596366,-12.739992427214471,-16.12794429191119,-14.641938507747287
0.5760000000000001,-13.537640338721776,2.2158778415283833,-6.929808724398578,-7.248924188936142,-9.903376155610932,-13.669208669823387,-15.138263989954584,-13.023814018960648
0.58,-12.773977128927582,1.468479090922144,-6.5164232972899345,-8.339687180295895,-10.755711530128117,-14.44304767501813,-13.46131093922546,-12.525481025820627
0.584,-11.209488746361497,0.6703274407824088,-6.026181422959784,-8.612877520083009,-11.499024856348237,-14.263078685467063,-11.206016837948217,-12.742692510922385
0.588,-8.830669394995114,0.2573942682276542,-5.561904158154505,-7.822541373283258,-11.385618551759048,-12.776341767164482,-8.594610850706843,-12.887222672582782
0.592,-6.042709154346591,0.42567259982610395,-5.188276824270174,-6.202590599182383,-9.920329053809247,-10.232434480557565,-5.983458954995605,-12.2328758441027
0.596,-3.5597842526431442,1.0348076944066475,-4.918530021906664,-4.369598501081635,-7.172881052616061,-7.335376324567937,-3.8008373173773196,-10.531515894873369
0.6,-2.089072607385452,1.7024412016184016,-4.7081690438980575,-3.01429376340027,-3.7917087708272983,-4.883843283143981,-2.4017842265750167,-8.165988192240818
0.604,-1.9790070481143207,2.0244733207085432,-4.469227412414121,-2.548016864787897,-0.7127074208220563,-3.3961885583220908,-1.9128366489348998,-5.945455635944146
0.608,-3.0194820433219904,1.8075537096567105,-4.106885733288812,-2.888562580874375,1.2921984053855646,-2.904820893126673,-2.1569697951979334,-4.654534418917276
0.612,-4.511903968877812,1.1852519921128724,-3.5667113009584166,-3.4973008206214886,1.9756487284390487,-3.0042597352518783,-2.709696055163841,-4.613575647170653
0.616,-5.585206005028814,0.552497067237077,-2.8623816469425485,-3.649449991574389,1.6860781428740732,-3.1066370849650022,-3.072426939827185,-5.492157894019218
0.62,-5.581843401707567,0.3755590702556222,-2.056857694133786,-2.7868981805515247,1.1481039716703871,-2.7635710468744263,-2.887089955960869,-6.490796512106881
0.624,-4.320640338225288,0.9655141829179463,-1.2143011472518763,-0.7755300137787272,1.0733368449921534,-1.886491039480745,-2.083015379701213,-6.786575482641692
0.628,-2.116944988275113,2.3286292445844605,-0.3650675222562185,2.0497255460468393,1.8149928104715967,-0.761096729043131,-0.8822093887943581,-5.989048920725397
0.632,0.4128340907069643,4.155290250623911,0.4740849621404166,5.0507607821755,3.224833534945649,0.13134400101482502,0.3238825474404372,-4.345097325722087
0.636,2.6326313141085596,5.936836930393721,1.2328713870528185,7.558460046190788,4.758620317456852,0.382409210769171,1.162150295394266,-2.5860257474087662
0.64,4.112655152488969,7.170373268721519,1.7385089474833304,9.114131288742332,5.767652502468923,-0.1317603078494365,1.444958566456167,-1.5138589823642974
0.644,4.701823486803897,7.5537407554209075,1.741428612925933,9.581696583451649,5.801619159664284,-1.200923345697551,1.236620423606924,-1.5532813218545325
0.648,4.462993356788628,7.092288603135787,1.0265560835863985,9.115530175037955,4.773809169425167,-2.3998693392997668,0.8024319038002972,-2.5144212286225347
0.652,3.549344643856104,6.070276473694964,-0.4435512142736,8.03010473492159,2.928394636790994,-3.3028855859953006,0.48478887672446547,-3.687955448498294
0.656,2.1219506799219747,4.913058044945753,-2.433655185090341,6.662381254927865,0.6754287949748043,-3.679053973895963,0.5635651524823508,-4.212124647202831
0.66,0.3747326753606135,4.032644555998848,-4.445009772986917,5.302034753748077,-1.5589548160513687,-3.5713476577379044,1.1698356330117337,-3.520194039464128
0.664,-1.399962278708042,3.6993086084743094,-5.857603541842136,4.181524119145658,-3.4040845784399307,-3.2327285823842615,2.2745479967525553,-1.6357066989663718
0.668,-2.8011995171237576,3.9792635924694952,-6.156337381046773,3.485374262881841,-4.539792103236551,-2.960636177669599,3.7317907568987465,0.8311973561345027
0.672,-3.4227886048977405,4.731415340697026,-5.149502121200645,3.333948271070852,-4.704756820516775,-2.9169606116666564,5.332722757470048,2.9671649012617003
0.676,-3.0599719822109956,5.636985664232822,-3.0778672025709257,3.725449454258257,-3.787226928600864,-3.036322648161669,6.845461075196207,3.9648637094626906
0.68,-1.8881563102887124,6.285742490132893,-0.5381219536368405,4.484254364073754,-1.9453215282704668,-3.080580138218972,8.036779683726653,3.4530768314720164
0.684,-0.46784973724289003,6.30795750727143,1.7476383435111211,5.281085669100076,0.3309861182847015,-2.8002088200628643,8.697102804933813,1.6070581226014555
0.6880000000000001,0.4621877429380019,5.518006344364816,3.210283141553659,5.736670021566312,2.306615897798742,-2.1183560788036653,8.682928995231507,-0.9920429293045354
0.6920000000000001,0.3220756048007871,4.0155159450982305,3.632181441744053,5.580778410483609,3.251065434747324,-1.2213300634190403,7.975910129441335,-3.630709986376058
0.6960000000000001,-1.0150706329292518,2.182883927476305,3.184340458013242,4.783338505972564,2.7492683261343265,-0.4923837102491526,6.7303013533695175,-5.72302282017099
0.7000000000000001,-3.124497358943329,0.5735583986514152,2.3124090152665815,3.5857341339187068,0.9354435029364572,-0.31327012247239616,5.273436535195719,-6.952131551747521
0.704,-5.210170400070324,-0.29835599434579935,1.5341080362701065,2.3974026359950615,-1.510688379820838,-0.8377271777472728,4.029935205437505,-7.259584387914028
0.708,-6.481703991863286,-0.18343983653247653,1.2335297897765092,1.5966940365567526,-3.6400465436214615,-1.868411980806981,3.377720562660585,-6.747107607916751
0.712,-6.535956618510511,0.7637232593154035,1.5254595217869062,1.337248500935786,-4.670542024886808,-2.9215825820389476,3.481620834467055,-5.580416358097537
0.716,-5.544269832160186,2.0099989487230197,2.231902645522899,1.4651952612090806,-4.368813999066609,-3.4622074254203405,4.190401691472537,-3.9509840601721393
0.72,-4.13288042314862,2.871266913799898,2.981747976446367,1.6104631246849737,-3.1413716859190384,-3.1908831364398984,5.067390830984331,-2.0939525719957266
0.724,-3.0341775340262522,2.8388937918182355,3.3921578917442026,1.4063205127460057,-1.7804734443976145,-2.2243521315845007,5.561461737475417,-0.3139441340915683
0.728,-2.6943800194531047,1.8492210829937727,3.259059841004378,0.7173470200256391,-0.99841465303105,-1.0517574197936073,5.264614734916762,1.0508485749908436
0.732,-3.049955111798611,0.3425603237245589,2.6679872229283985,-0.2540417596732576,-1.025663567367019,-0.27473150523086787,4.126078652975922,1.733108766541327
0.736,-3.5967227201000007,-0.9454156699221485,1.967998556284897,-1.053294220201372,-1.5132650456446113,-0.27180092812042833,2.507755336533784,1.652502402563783
0.74,-3.694988106807927,-1.347777145902537,1.6275344610375626,-1.212692709287984,-1.772810792380597,-0.9826301790506804,1.046108269507426,0.9613767849429569
0.744,-2.9263918790729764,-0.5991148636492774,2.0357804841620344,-0.5120111187970018,-1.2132556601850513,-1.9394356575866976,0.3709454341287479,-0.02638619303734613
0.748,-1.3086793770291685,1.038638218221139,3.3308451721646275,0.8873778552812586,0.28684639171211757,-2.542555873891893,0.8131886036488662,-1.0001808735651303
0.752,0.7226994717980215,2.9070641619131994,5.323185555377184,2.5070686128980784,2.2789063984641404,-2.4245127615083826,2.2455781172275247,-1.8113139601680843
0.756,2.539270250151459,4.264203002384384,7.562907265676886,3.7899806296725655,3.970437195216461,-1.6808401955311272,4.148067184385944,-2.5098516908667046
0.76,3.61773101636928,4.615229651222867,9.521206961506213,4.376767277763885,4.648428739976241,-0.8309562272444676,5.859127438585682,-3.2463288655075457
0.764,3.7480167248322207,3.8776195613863544,10.789116963027434,4.260939698987193,4.040405969746741,-0.5172901108284393,6.8782072838866055,-4.100199574955543
0.768,3.0551902193770246,2.3220078724337334,11.200081768911984,3.736673748947045,2.4120420625579007,-1.114233911779642,7.066248201856973,-4.95168167620292
0.772,1.8505308752273706,0.34509056733098786,10.81472220074095,3.1698845445825707,0.35243031620225196,-2.478249120700574,6.641237026767306,-5.4967070919210235
0.776,0.4275114077322244,-1.7771908807970314,9.787490507190697,2.7357713815991334,-1.606672311484226,-3.98775182690056,5.994670205613129,-5.414819594626869
0.78,-1.0667673153080752,-3.9821976626567945,8.234481428771373,2.290045457050658,-3.266515672389497,-4.866578972294393,5.449838350434625,-4.597358328426279
0.784,-2.6125563107557523,-6.3205262368652315,6.19787069063748,1.4622961716469987,-4.773167734064819,-4.60646981192045,5.103012944788691,-3.2813838165401314
0.788,-4.180148846591926,-8.746881815171783,3.737523223220018,-0.07648315449155274,-6.364735439300606,-3.2455950138123275,4.838380495622474,-1.9819342554032622
0.792,-5.600409217632223,-10.97429350934913,1.0670696397773105,-2.340753777254328,-8.050335807030173,-1.346659534629087,4.481281016927776,-1.233497187956769
0.796,-6.555111710979279,-12.524366891519618,-1.387852616814783,-4.928949156639715,-9.465719888261411,0.3101836131109549,3.9701670291782207,-1.280676502725432
0.8,-6.708171823457775,-12.954251409511247,-3.0883179678974924,-7.1713718275640765,-10.01872602281193,1.1344887647463546,3.4180935446365375,-1.9179455200198134
0.804,-5.91784382543981,-12.134704684066287,-3.620436169817787,-8.459802354111304,-9.260739008383995,0.9969042073504939,3.032160254117408,-2.5902509801544844
0.808,-4.377691404398383,-10.386977930453972,-2.9405047758627902,-8.562217521810734,-7.2414203620886415,0.22698005505697672,2.9521380818100393,-2.7133219325186575
0.812,-2.5913139868295634,-8.381832837585016,-1.4728115325934188,-7.735728998262884,-4.611350806963719,-0.6350598494892439,3.1220987951681662,-2.0238229280855897
0.8160000000000001,-1.1700064233370422,-6.840615299164686,0.03455677194687068,-6.566089133334353,-2.3850451845947953,-1.1624403255828122,3.302690605850885,-0.7363791051656374
0.8200000000000001,-0.5276088722731007,-6.182202630322623,0.8670209429710316,-5.616249324008364,-1.4472294196102204,-1.2460124164160258,3.238384149208614,0.5928702171980613
0.8240000000000001,-0.6516336902197715,-6.32802740339505,0.7278232261297919,-5.097155954006049,-2.0833187540122498,-1.0747348092607993,2.8644906966867816,1.4192981940469294
0.8280000000000001,-1.0901771834567135,-6.778312123608137,-0.07049464979543041,-4.762303611322361,-3.8051071188718124,-0.9391327883200522,2.4014420137064745,1.5600943982355457
0.8320000000000001,-1.1871958969260827,-6.924998771375449,-0.74003283711135,-4.098667808166055,-5.590770315745582,-1.0042236163370113,2.251806544145894,1.3174394042237627
0.836,-0.4508130474351002,-6.419481770672256,-0.4275804062397903,-2.6982719322029354,-6.417382664003108,-1.198910746130445,2.7473834894953253,1.2954782043057536
0.84,1.139618563535433,-5.373430895582531,1.3154973768796197,-0.5813270800357048,-5.784425571780256,-1.2913356800102553,3.8930590306292343,2.0016921801005765
0.844,3.068419687125187,-4.280319819822717,4.2666953330042245,1.7384342808955453,-3.9507672624920573,-1.0811176083016862,5.286245323171048,3.4791791742847997
0.848,4.525811614598852,-3.6970801715010433,7.621436545094257,3.503387051043277,-1.7558169315517942,-0.5617984892638934,6.289207163123936,5.2158833459263265
0.852,4.835686745563998,-3.887885220787954,10.382387522899528,4.1347932976134665,-0.148217793205351,0.06384645758668794,6.379575157116499,6.406625153795731
0.856,3.8327488667496894,-4.657025903311373,11.822016612326811,3.5775669094265328,0.29443565250545634,0.5210923724633849,5.470228331908233,6.424535211433527
0.86,1.9931523179729926,-5.452892707275989,11.778675577375312,2.363296702147481,-0.3843156822263518,0.6527141848163449,4.002865898699077,5.216816245657695
0.864,0.22553771738526152,-5.688536972172375,10.643661231843117,1.3455442833918188,-1.6180049965011882,0.5290027494405285,2.7471147344878606,3.382102066356479
0.868,-0.5821972685096926,-5.08889477751006,9.076686255322638,1.250893439159574,-2.6726293692553016,0.3970194234378015,2.3993975361327067,1.8637713593023335
0.872,-0.02081798240049082,-3.860928395828367,7.639650396635691,2.3035773292352566,-3.044188936061159,0.5006745075708565,3.2058856626608154,1.4293088695990939
0.876,1.6270319456240188,-2.589536116255604,6.565960363002187,4.136822741299454,-2.6846482922499755,0.8996027615417468,4.837034961230804,2.2418669392961004
0.88,3.5285520431723434,-1.9181748680179176,5.774548039620541,6.016521690697894,-1.9538626880536385,1.403259259230131,6.576554149689128,3.7656157435681745
0.884,4.7307697723262905,-2.1922635371315673,5.084315063416973,7.243909585161722,-1.3552481856286607,1.674091148307526,7.71714150424327,5.066761805659606
0.888,4.656333601415615,-3.2564307840546154,4.459858655882545,7.5025095334928,-1.2221795338365662,1.4338175263043174,7.93580566109045,5.332142983740997
0.892,3.3894995168566995,-4.520784220289137,4.101448618720578,6.952768475959915,-1.539419091445252,0.6414787302957703,7.431203673888183,4.307283090807589
0.896,1.5986650921804433,-5.261873667383018,4.320488678187619,6.053250625805585,-1.9792375499894685,-0.4609605541852204,6.7559055090648314,2.421099485008071
0.9,0.15953202486614693,-4.978449013581969,5.292310327677201,5.243435807437388,-2.093804691993544,-1.4672790316673314,6.456316997760307,0.5271803448120345
0.904,-0.31924947798868963,-3.633253106120698,6.861377354560785,4.691480745111974,-1.5493382099127881,-2.016342801385874,6.74084085573671,-0.5767424417223062
0.908,0.19536434486417775,-1.6594754902762112,8.549156170457978,4.256018357390596,-0.27415041792452044,-1.9677730890974265,7.373622921594116,-0.5768536434004758
0.912,1.1722987835585768,0.2448205070739995,9.766706533120537,3.656961152675862,1.522755413783074,-1.4509058087540296,7.846823340921123,0.21436355140996
0.916,1.8267750821442004,1.4116392510697944,10.104828421635563,2.723112889335943,3.432256613402215,-0.7664017610134182,7.712751732850108,1.0653840923989102
0.92,1.5670195338800976,1.4605680504679452,9.538058021668192,1.550420784165933,4.992440298566305,-0.21725828208012832,6.878022172968659,1.2526375592274892
0.924,0.31782317900905,0.40298079346228244,8.412690379622465,0.46684487896156535,5.8340528451247895,0.022352445776307128,5.6662294063705065,0.46449221314949074
0.928,-1.449118963714982,-1.4106999975616858,7.240261092554086,-0.16657027548746273,5.799385812821178,-0.06706964066488252,4.622827516575688,-1.0355420582315469
0.932,-2.9731532883600504,-3.447853397023385,6.4244263188295525,-0.17797707894491488,5.0112281190938,-0.42186358723920936,4.197127458192473,-2.5472523647748133
0.936,-3.5963727139347013,-5.182820714547175,6.074963539289367,0.3162574766709474,3.8575695276266373,-0.9941191697734002,4.480437709036031,-3.286489070631885
0.9400000000000001,-3.0771731447210806,-6.245305830141636,6.008565524984715,0.9936562174916478,2.8870955121543647,-1.8009959194268128,5.156388714071187,-2.7701239003628646
0.9440000000000001,-1.6680106531643195,-6.501357568222878,5.916781384637416,1.5305200940587618,2.6178520526684252,-2.8897285697024455,5.691942720727707,-1.0458187786922277
0.9480000000000001,0.06546245244483684,-6.060266554070578,5.5814157106592335,1.7913074532195585,3.3164041268160176,-4.248892263897365,5.64859906386274,1.3224755611431909
0.9520000000000001,1.5634263328640143,-5.224011106057526,5.002001152896029,1.8781586524726404,4.840620764464478,-5.729631017379985,4.932491578158562,3.4957920008872048
0.9560000000000001,2.5337961683657912,-4.412087391661074,4.357788901217054,2.008226910631308,6.626632115456497,-7.04294382457411,3.8360812153827117,4.70417840388235
0.96,3.026489390098221,-4.056450930838813,3.8446102901025743,2.302678253086734,7.877014162440849,-7.859515362655218,2.85139969146598,4.538848857930151
0.964,3.3000662102976266,-4.483276637471109,3.5041139437876634,2.629122081072567,7.8891048994169415,-7.960732654965605,2.3711205719615815,3.0848679319021555
0.968,3.5878133177292435,-5.796951610234529,3.168482791217867,2.6180426527135534,6.397508826347122,-7.359706866282579,2.4518817622153106,0.8522367765192123
0.972,3.922328557650148,-7.81338664805787,2.549933684494163,1.8585234135092876,3.749805915046641,-6.32467401031344,2.774080157179669,-1.4547145074021253
0.976,4.124299391752798,-10.084459145798212,1.414839501167025,0.1602981438723763,0.7934467953499751,-5.280211466281431,2.823226501962875,-3.225316574356948
0.98,3.9628383772569933,-12.010460181814555,-0.2598966424231053,-2.2619826776677936,-1.4769869556820225,-4.627164748141184,2.191801614392734,-4.171088244619616
0.984,3.366711533398768,-13.02629646650303,-2.239945613376773,-4.801976364344268,-2.3528485287107923,-4.563020417172504,0.83779308403171,-4.401008919232453
0.988,2.5501942497556906,-12.792359285868793,-4.117055172232419,-6.680181590309404,-1.7004279272200904,-4.984208756410563,-0.84245016222423,-4.313382371794738
0.992,1.9662963917879681,-11.31305026972251,-5.472157955317493,-7.258056873245371,0.03862693449985555,-5.517270253924575,-2.171710664906916,-4.3582708165297355
0.996,2.0866758318230536,-8.950703319319704,-6.038400724881566,-6.297569327015667,2.113175196786666,-5.671561411906271,-2.5103800728566164,-4.786752558646166
1.0,3.133984230443308,-6.307117080339369,-5.782651808820519,-4.040469343390926,3.8538406630489703,-5.058633906590864,-1.576522478770352,-5.513949719570434
1.004,4.915687405286572,-4.02314582294729,-4.8842465392440655,-1.085385223188105,4.9641755150805755,-3.5843855438849834,0.38993757346771485,-6.174279933473644
1.008,6.864159788120811,-2.5632730962671557,-3.638001165055628,1.8632212813786673,5.57469379827222,-1.5304639891814258,2.7033240717591918,-6.342452332736885
1.012,8.276442292522006,-2.0667346339884993,-2.339393056972229,4.244020772400174,6.0503605339328,0.5179798249254741,4.524223267848219,-5.794843986212509
1.016,8.636615177572896,-2.331419115227448,-1.2052249123171106,5.780437367605815,6.6867365626544295,1.8892055607546556,5.235305805113104,-4.651296166950688
1.02,7.865219051598893,-2.918643997672233,-0.3389468846384496,6.480679485673429,7.508855081100872,2.1029480750127996,4.728498631377656,-3.308872744365914
1.024,6.3639132948226615,-3.3460604543883194,0.2673027583910583,6.538586740711761,8.284200273048086,1.0974336770428237,3.4665866961537075,-2.190350852800308
1.028,4.837151257215808,-3.272972860061776,0.7159865728641863,6.217342441162653,8.738308638146652,-0.7015644049795711,2.2841474905674106,-1.462243798597754
1.032,3.973735206834293,-2.612206090631978,1.167042734051098,5.767675132504415,8.803213108194205,-2.5241651649145878,2.009021880227734,-0.9100945162500134
1.036,4.131303975489162,-1.5483099648490954,1.7651589850929372,5.38724845312924,8.697839199570328,-3.563103362178481,3.0745013236727283,-0.06874180678048747
1.04,5.169005362236932,-0.4570948445141858,2.5411261393882327,5.188749795824115,8.770101538579182,-3.324844731909332,5.285698025993035,1.4371369166458585
1.044,6.510508264937572,0.23646506301308046,3.3371368882917256,5.162792087899963,9.196039019093856,-1.8571531994492156,7.863078679574302,3.54946271397414
1.048,7.410103001718385,0.21452720308932527,3.8142045856273703,5.147623773459474,9.757255156450237,0.25615970870465965,9.763270002471788,5.659185917402705
1.052,7.301444760645879,-0.6230286106289524,3.5661549968948503,4.842433727564501,9.877278778693071,2.1430686755722927,10.137107867470032,6.8281677554507825
1.056,6.072345525804988,-2.122694442596929,2.316984754422209,3.9113357855382835,8.937587066652416,3.0335587190754616,8.727717518888259,6.285469419093911
1.06,4.151796891884621,-3.9085136265282765,0.12077259324527034,2.1694111641157194,6.720049502124105,2.612647980401775,6.020748095393584,3.930625306569029
1.064,2.3550124628806905,-5.488021529323248,-2.5584819652349697,-0.23407043674506323,3.68943738754831,1.1657767922252094,3.0579012601312,0.5440163231043362
1.068,1.5459470407559248,-6.398751409196292,-4.965486458980613,-2.756763181715173,0.9041938631728796,-0.5578570057207128,0.9829125959818743,-2.4748649554373277
1.072,2.2523475565401903,-6.358900735021834,-6.3552398169685755,-4.603998274960769,-0.4561261076955274,-1.6977943601965417,0.5235030102199993,-3.7453600868970014
1.076,4.398622448624628,-5.376458267471113,-6.346276708412169,-5.039748798929391,0.2804750458469458,-1.6683155727914163,1.6599526743259327,-2.5924770571434506
1.08,7.28638081454404,-3.7556747653237865,-5.143263942775496,-3.734092352020286,2.861838219354383,-0.39586859076562253,3.6449216455418925,0.5798057051574244
1.084,9.865583246097367,-1.9830181851413657,-3.4802983157299647,-0.9541096120562491,6.174682604531192,1.706057041068998,5.392803608349366,4.4628000001348465
1.088,11.192494421021367,-0.5179111387516961,-2.2749565263941527,2.5223902701928074,8.798560014694054,3.9871468809485715,6.04830189996436,7.486943880487475
1.092,10.87151333911915,0.42614036183330484,-2.15740168024389,5.747226598873761,9.760174848338036,5.883264614486626,5.4432967946240876,8.593397427179656
1.096,9.253301903244186,0.9798554734980769,-3.1318646803817756,8.020175081418898,9.04693075460051,7.135869927011102,4.192882539528058,7.716710824726469
1.1,7.268486926289696,1.5363504253661588,-4.564812942446061,9.159054510578981,7.586605082728761,7.79868243721237,3.3615291494952135,5.719548621034492
1.104,5.954774261146679,2.5050164131989208,-5.530915049839988,9.479102501334182,6.682522065536968,8.064852899444125,3.8610154353049935,3.829299564385454
1.108,5.923796114469096,4.040197884945592,-5.324452720605718,9.519470774875828,7.250457773780499,8.059384945168958,5.916739597029878,2.9261904765968576
1.112,7.044932668821926,5.9063863462487305,-3.853050751604444,9.692771506165702,9.302503799161476,7.749253300027651,8.906715681629887,3.112046742915954
1.116,8.525637425687766,7.570592431669844,-1.6870684182217508,10.079345072542207,11.98126244988465,7.0369847995425525,11.688372343129702,3.8105689510684
1.12,9.369159914546465,8.502641198310362,0.2808247181181539,10.481716749819668,14.128411207028975,5.963039131125933,13.24574213815828,4.307522101559183
1.124,8.94788320767126,8.508732392124726,1.3698178405485348,10.674631586200995,15.014464289777969,4.84187815860971,13.288173520849478,4.359921254042548
1.1280000000000001,7.36125859342466,7.8839784592564435,1.5033426622686221,10.644813407116297,14.764131885670658,4.1827209812295285,12.417430809933673,4.430373104237857
1.1320000000000001,5.3489317919369945,7.251719847828277,1.2022698015943813,10.619078632155617,14.190640510103563,4.384315656456325,11.718530063951793,5.340031082538287
1.1360000000000001,3.7742868303820085,7.131603641442574,1.150856134686883,10.826382628597806,14.108755132081667,5.3643362932559135,11.972554188030761,7.523977399939928
1.1400000000000001,2.9945032669944354,7.494802127742165,1.5964811976573499,11.154313470826855,14.580365458585756,6.376919513267257,12.953092828526264,10.369221245659013
1.1440000000000001,2.5080000700242904,7.587745669551296,1.9741139537949342,10.96813889074713,14.599884897406355,6.198288418419837,13.2690752978455,12.133213948839728
1.1480000000000001,1.1544638646903054,6.213572401011514,1.057598041139433,9.302196407133978,12.513844622783036,3.669088925134267,10.950258194187203,10.641390227070048
1.1520000000000001,-2.185553997082917,2.390965328447347,-2.359286465996008,5.395973707418733,7.0125959065766565,-1.640297810102102,4.543852368214369,4.4848982676717775
1.156,-7.769511866066539,-3.9525184068568127,-8.601229107312797,-0.7015233733075839,-1.8633060178343366,-8.998418885202293,-5.845633783772298,-5.917756527487855
1.16,-14.53151747927432,-11.640885033088015,-16.567367103794716,-7.828998087800713,-12.307837834654695,-16.592911535525268,-18.178432744684272,-18.046452014198955
1.164,-20.325525496148558,-18.531201212316443,-23.891414205699512,-13.973088814933131,-21.260705277227032,-22.151028656898816,-29.053532650252684,-28.067164852805796
1.168,-22.815819858597617,-22.33372602772157,-27.81825481458543,-17.03629574886397,-25.644681526151842,-23.8403029209095,-35.03651996814688,-32.39169747039919
1.172,-20.579095133150144,-21.590546272447366,-26.413038819218677,-15.75480658861498,-23.72192438334159,-21.02449885082876,-34.10750067567919,-29.255004025061066
1.176,-13.852987559240022,-16.340857108067468,-19.50791162480319,-10.302722930961913,-15.892318947458229,-14.509122600315195,-26.51375119995883,-19.50474069295265
1.18,-4.51079850080358,-8.11409397880714,-8.87811822189049,-2.2518805839497382,-4.509232646267895,-6.164452393327221,-14.617229203348675,-6.195776451836157
1.184,4.737320781865418,0.7420673160956557,2.466119100453975,6.1043065250399655,7.170030108683522,1.8727519039673268,-1.8199637769116572,6.810009046199633
1.188,11.516074011999054,8.068073381309919,11.544944656746988,12.717793635463067,16.360769910461947,8.016028979853033,8.868603761650988,16.50228031519772
1.192,14.743012123076559,12.728145470118976,16.6065220555775,16.564509520473134,21.766205179929027,11.685790752517278,15.897027210483333,21.800311544331468
1.196,14.901109806815947,14.870212496706499,17.672777419939585,17.86537620259148,23.76135460131996,13.246271941018756,19.39787963849531,23.557381165913366
1.2,13.53758305571252,15.541566921828458,16.215092783888537,17.699803686729222,23.77057573251518,13.539770489134014,20.581660114642514,23.606386504784986
1.204,12.32826395120766,15.931520922818335,14.205066666656675,17.28962191206277,23.271646275009815,13.341432350831282,20.752547738243887,23.483518998958026
1.208,12.2407189598662,16.693578896556875,13.086720071734954,17.36513898753182,23.013679281247576,13.03111379330186,20.545379600368108,23.57636142272947
1.212,13.21001448888077,17.702375694709602,13.204215362142488,17.932807136646787,22.83280254833657,12.605769077910782,19.77806388579214,23.14508756371623
1.216,14.412849503561867,18.308581745076683,13.91243845761992,18.484392924031283,22.044468765288507,11.936521734882518,17.903337220503246,21.10942054244603
1.22,14.89957834528306,17.878778812120892,14.202137557862912,18.443261460811726,20.084775955554775,11.037208436064363,14.670492296238997,17.031860802133714
1.224,14.174332829305175,16.2591130555776,13.416823424606894,17.55214335236154,16.96814708060117,10.146050144952746,10.527304379147637,11.64560034795013
1.228,12.406116604127318,13.893951275662772,11.631507564643487,15.98713851380064,13.305057011145827,9.575268344337216,6.4908515075854645,6.582022582504197
1.232,10.216581532130306,11.56391515780806,9.520890256754932,14.186427517524784,9.930079538990086,9.466499485225363,3.5947858255948266,3.483414262010482
1.236,8.249563382346611,9.939829125242529,7.8731636160409995,12.571029539250853,7.426773613016298,9.658285081478006,2.302646144819641,3.0810905892346145
1.24,6.828760226704797,9.245832781731838,7.0979779825999625,11.350689820996218,5.868660530160648,9.777811359777257,2.2732716227145406,4.80774415554889
1.244,5.899923975709402,9.215641859072736,7.041825995397257,10.51813937017289,4.907133420368293,9.510169892575597,2.6318718488081148,7.18541684508461
1.248,5.258920711157922,9.354868559652486,7.205481327590675,9.994614459450208,4.118958295490757,8.863269800254875,2.571409739260326,8.738350014225666
1.252,4.861108181900241,9.312627863969377,7.179136181429948,9.783262883320692,3.3565107650852575,8.230197403007399,1.8973706237768426,8.860318614680295
1.256,4.957233962127212,9.100034426594117,6.970235075911811,9.998901339373052,2.8462676746312043,8.185388470552319,1.1497647345645703,8.110902794671285
1.26,5.950961499076678,9.035673616349069,6.996678670186508,10.753906249152507,2.9935582342255125,9.118347054072302,1.226960414354322,7.783062925048165
1.264,8.073789511412702,9.472253135082102,7.758574602427098,12.004018421637147,4.0403348981959635,10.933626496793124,2.7665291319913834,9.033093034924978
1.268,11.111139926114381,10.515367262691246,9.4263865351403,13.488463921441415,5.83539855676452,13.019203676011562,5.676444336000539,12.120378905994993
1.272,14.363544445311245,11.919823426320349,11.63308724912407,14.820027306153342,7.870918205185711,14.514855532467099,9.103488237126667,16.215978937856548
1.276,16.89900690005973,13.221943865404496,13.62721526100429,15.680461361829776,9.553578524076453,14.74921678440757,11.863145335715753,19.876583892892587
1.28,17.97949079868451,14.026265099244041,14.702250876514803,15.995732412288664,10.540114906880643,13.600964652340863,13.063604163261388,21.870624047709743
1.284,17.405244609483972,14.238013086718759,14.625650042003208,15.972231662995958,10.910481030869125,11.576257830825453,12.553649645203233,21.843458680805895
1.288,15.587651868270246,14.096209727708256,13.790306333012294,15.964799595939462,11.07803291252276,9.551959658016663,10.939132075456769,20.431380117742343
1.292,13.320308647934098,13.992876814757347,12.978832165243874,16.25269519090082,11.505580510326022,8.328543406421243,9.179922307763109,18.789486856184432
1.296,11.377155199667753,14.191730979531346,12.873216376224805,16.858752980885217,12.399083828163626,8.239287986329401,8.03183803643999,17.862856294151136
1.3,10.16570544807752,14.64487156647671,13.609640319226086,17.51801041850344,13.572106629148385,9.017569091228783,7.667092594523751,17.86426393807497
1.304,9.60774063936976,15.016850338414056,14.653213336533195,17.807831066912506,14.539695480957343,9.975970884346292,7.673036552839662,18.259167696414714
1.308,9.29134414618042,14.915125976908378,15.088638676965676,17.363951298046153,14.784235884900292,10.380376995800802,7.393236815178296,18.22440723545332
1.312,8.77386187659871,14.176342841702802,14.15985380080971,16.060477341635483,14.02828832772466,9.805474374950066,6.372175463767938,17.25640498130731
1.316,7.832870033169375,13.004575053356229,11.732026655355867,14.05948333791132,12.345415465461565,8.297285935269247,4.6224721822989325,15.532112674033499
1.32,6.540511981853035,11.88474427679235,8.409165073701347,11.727368925243226,10.083789315034041,6.289560332342493,2.584407015513884,13.802816379073782
1.324,5.138657186782916,11.30264010207519,5.235200978310614,9.46877090046987,7.66496058933288,4.353733006925501,0.8336123683011767,12.902095983949398
1.328,3.832439351456637,11.452620019768437,3.1618279569720986,7.573622969144165,5.404111096917536,2.934735269492345,-0.26086598628429236,13.18093142342693
1.332,2.6518758072225435,12.117043420392209,2.586209349688317,6.140990880160624,3.4503512039242596,2.20936534819448,-0.7188438790970535,14.227551608317198
1.336,1.4620751108331866,12.780580937140611,3.1994301910786227,5.088187890879238,1.8273931143677462,2.1018918683274803,-0.8828692851915063,15.036522144426762
1.34,0.10783982922929258,12.920561977485656,4.209395193557418,4.22641128397898,0.5269255163424895,2.406106263767925,-1.1739030464767874,14.524549645245934
1.344,-1.4166776207034664,12.29610643007998,4.785050862690063,3.363064376638405,-0.4334910899165325,2.9249939883080183,-1.8307035691666014,12.113392821017152
1.348,-2.9056221963119584,11.06995438391382,4.463625969013832,2.381789026416998,-1.019230665917874,3.540562622030843,-2.788927393142529,8.051456748522344
1.352,-4.035889871173454,9.70473681757959,3.3146307875033836,1.2867659380116416,-1.2223371888165833,4.199792300581489,-3.750745407079114,3.3120666512750705
1.356,-4.567068821173078,8.688756468218468,1.800246731611221,0.19717660418741811,-1.1068714898152878,4.860367711556531,-4.378646426338117,-0.8532747201219912
1.36,-4.514534784325023,8.25965259432263,0.4537526557841103,-0.7111358214257022,-0.8101092619203305,5.4511856501361855,-4.493115652981009,-3.4644214257646273
1.364,-4.164360248561559,8.28536425500275,-0.4121121625107649,-1.2848776639491435,-0.5040095438829102,5.886917363680539,-4.162675764358756,-4.18837575693707
1.368,-3.901510210422502,8.365951592328667,-0.8144879126808533,-1.4677931167573353,-0.3461996915379095,6.114319037429455,-3.6644855106405823,-3.3930040755311617
1.372,-3.9568666625712696,8.08609046563643,-0.9972786977669372,-1.3350388742342116,-0.4455093797042182,6.146068046228218,-3.366300931017013,-1.8986490260396647
1.3760000000000001,-4.227611853863909,7.262974821211137,-1.2181694370790865,-1.0549431492455552,-0.8544620027057992,6.061235464911794,-3.5815457027858457,-0.5667433153226793
1.3800000000000001,-4.289707005755011,6.053480599478684,-1.5749320258879558,-0.7960736974909278,-1.5614158458767162,5.958386397640639,-4.466808205231887,0.06718177883319765
1.3840000000000001,-3.6333660164846506,4.8502383988594655,-1.9698750813382624,-0.6311704784729415,-2.475381379694497,5.8981324949676015,-5.9842385294647995,-0.03628429452130266
1.3880000000000001,-1.9958661902248984,4.036809548653812,-2.204151684130454,-0.5004086992326998,-3.4080047498490136,5.870825389488766,-7.915094885525957,-0.4958327269514653
1.3920000000000001,0.4074568779172667,3.747547519270288,-2.1185376413806285,-0.2679585807435547,-4.088247664309525,5.81383365568505,-9.909807247268052,-0.7683297657407966
1.3960000000000001,2.890945568485871,3.7582261965886072,-1.6859652081771173,0.14791873029153946,-4.257251737408609,5.670593984974364,-11.562354649550318,-0.45239436039549563
1.4000000000000001,4.5712157864288745,3.5850870867541773,-1.0146571277452114,0.6577614199234215,-3.8131385435455574,5.445738544467439,-12.516572205463529,0.4956916390466177
1.4040000000000001,4.768022855084986,2.73514680584971,-0.2874266772067111,0.9837311134212818,-2.939157609957376,5.212544498750981,-12.582281416396699,1.728852534534871
1.408,3.3420098271153083,1.0005604971528932,0.3176676053437335,0.7837434295310329,-2.098380667215018,5.071380555719241,-11.816911203144212,2.6746953796063453
1.412,0.7930831603457946,-1.351318330392077,0.6786894551149756,-0.1312707592419059,-1.8450969148666119,5.086997828248282,-10.527377920962511,2.8236984109614065
1.416,-1.9365679068963269,-3.6053576862571886,0.7386390181470315,-1.6111106006899427,-2.5275002054022844,5.242031033183234,-9.168552713141366,2.0065245602387285
1.42,-3.841469615675577,-4.834973229266004,0.5029389424766197,-3.1401787901272433,-4.026072224449589,5.438862678302529,-8.165212762333999,0.5255792462524047
1.424,-4.242189353921874,-4.2726204462091255,0.04231849440267865,-4.01937193775073,-5.710579542685566,5.551685757132477,-7.736034842139758,-0.9350430298241408
1.428,-3.0094278504289886,-1.6519050115359057,-0.491386888853099,-3.68315522461321,-6.677509341092065,5.495327898877789,-7.806234557574105,-1.599192433852965
1.432,-0.5310224171873537,2.6385832014540753,-0.8601015516498336,-1.9813362096181706,-6.175133138338309,5.276218744549043,-8.054353540306803,-0.950138506968425
1.436,2.517305475822054,7.652652319955823,-0.7910873389465696,0.7304823797308977,-4.01292268496553,5.000796874501649,-8.074732213181512,1.030025414733563
1.44,5.479176369082,12.224901905868496,-0.08116247349131189,3.7535993162231076,-0.7140986568326202,4.841131258873965,-7.577307879516364,3.8497184599197767
1.444,7.944719515121154,15.401979974418099,1.2895720719092045,6.380266733123548,2.681953486300845,4.971018682297,-6.529167253533471,6.738136248451879
1.448,9.82097226035605,16.792171086865725,3.1090116363239817,8.212693480091037,5.09632552257438,5.499649720316225,-5.16947360629004,8.982792349026898
1.452,11.243212220344322,16.681507744605252,4.994751961125624,9.28949642735123,5.922056001733735,6.420089788302135,-3.88754713324961,10.199266224077357
1.456,12.39491971446861,15.848664620432073,6.541070217852136,9.960041332988022,5.286728340605228,7.588474751102404,-3.026284811589274,10.407867747173771
1.46,13.344475851304434,15.17464189598869,7.482890511157389,10.595345200297142,3.94176208260153,8.745406726753814,-2.7128833496881346,9.90438929742638
1.464,13.97044252972566,15.224393582252144,7.778167774022126,11.316131878339935,2.8347153828790628,9.576242297030511,-2.7978944971904505,9.024464624984024
1.468,14.024077698114384,16.01925796540314,7.58159051284753,11.919153008065942,2.6256278402951763,9.807457203171527,-2.92415867722712,7.960238106975387
1.472,13.297240041337762,17.113589189890497,7.1339689482644655,12.046746787108233,3.4176453451633932,9.318743927035062,-2.686338754422886,6.739284765991966
1.476,11.798295735940421,17.897764633060188,6.62604847388035,11.474355328142568,4.807326023967188,8.220219410870744,-1.8178879165908208,5.3464549123802865
1.48,9.847906431325953,17.963144985276827,6.121461403443684,10.32485498913056,6.1960769755117955,6.84945606143126,-0.3173656201596087,3.880020095867719
1.484,8.015216467616428,17.310260917476583,5.575444214055024,9.05338303234323,7.140413030045179,5.666151347572516,1.5353642343671536,2.6083598461843645
1.488,6.909610401665306,16.294959073031308,4.916692819459739,8.198691803439505,7.53455290088443,5.068544377060308,3.263081906573708,1.8665669089425183
1.492,6.904759350747068,15.368516340984133,4.133700036159483,8.047625908398624,7.546267781196114,5.216237293346259,4.350903776116638,1.8520615777384561
1.496,7.908494677800825,14.759574304034203,3.2880065305195596,8.416622483511116,7.368234887467701,5.946843270235023,4.4133206624631285,2.458709764070093
1.5,9.32059759468427,14.31475320109055,2.449292705769406,8.70048624177985,6.988458498194577,6.845061143565612,3.3091377709745924,3.279210786604588
1.504,10.231155101387358,13.597583390982198,1.6047171383398058,8.178324465736573,6.137597050301068,7.444357119925888,1.1733116165372746,3.79886628633016
1.508,9.803327148756855,12.193649763560137,0.6240459536175722,6.412279205831445,4.467847617975998,7.456665231800605,-1.630197946333416,3.677813429952807
1.512,7.665515767188744,10.02513053400514,-0.6810631430252716,3.5037095634845405,1.8381860706152056,6.901572815956034,-4.609689550242546,2.949967654921865
1.516,4.115620599551205,7.465914080136306,-2.4306143393872035,0.06183715015634128,-1.4992480392155478,6.0617329815128445,-7.26304221711392,2.018198439052812
1.52,0.019027331626878308,5.177765469591416,-4.556180173648878,-3.093201096180783,-4.935408320364472,5.286259039273785,-9.177888978021835,1.4358030438116671
1.524,-3.5649125148327476,3.7553172581657908,-6.768014894594818,-5.317360954754005,-7.764060430083229,4.765432651333718,-10.095125252703703,1.6007700677084937
1.528,-5.842659915626187,3.4005260036388965,-8.642956206551876,-6.399964139464855,-9.508914731000399,4.411071342293334,-9.939635648115223,2.5388237488923986
1.532,-6.598996571541287,3.828420730287137,-9.788237854098469,-6.561342907648879,-10.115372208522919,3.9254815900738866,-8.823100194399974,3.8938414833845503
1.536,-6.216375832781615,4.450905643298498,-10.009846178385308,-6.226905310496945,-9.916684342750674,3.0257015256634165,-7.0242397270746375,5.12872388426165
1.54,-5.396656463394978,4.736720842005168,-9.39629098696158,-5.741904400101131,-9.395568642503598,1.6800838794147657,-4.943140387569035,5.8108276666477225
1.544,-4.759453670340449,4.518253608352911,-8.277744949284624,-5.213244507094516,-8.906107935830882,0.19752164294032015,-3.0347008372442668,5.8156662583052245
1.548,-4.5461961475050074,4.070954651096722,-7.083088562428971,-4.563011810076861,-8.511946795096833,-0.908399589457856,-1.7139637936538623,5.340602006347179
1.552,-4.579851804151059,3.926278940208951,-6.165515619349911,-3.7283197659626084,-8.017183364277807,-1.2091448680721775,-1.2481409673253783,4.736096009330147
1.556,-4.479752117290117,4.529561386310665,-5.68670834674199,-2.84580595486515,-7.170609420313834,-0.6353438275911825,-1.6725293903299678,4.271989296591544
1.56,-3.9755672048942365,5.961816349770659,-5.604997678002468,-2.272453005450908,-5.891090760715677,0.43401416650821334,-2.7743773540372905,3.9762912091652725
1.564,-3.109603661401154,7.880563227530741,-5.748167448767908,-2.4002374973870353,-4.368505985713092,1.3458932311669485,-4.153452395344458,3.6396836400715094
1.568,-2.2069718690943336,9.706549227475524,-5.913485697204571,-3.3816218748967124,-2.980565544420708,1.5161885140432387,-5.346862595094305,2.963998335193727
1.572,-1.6413254291034067,10.928789107956135,-5.941750612354071,-4.952629116391494,-2.0825889284893426,0.7443533910074949,-5.980975684236754,1.7507903949278483
1.576,-1.5594132971543142,11.33460865566433,-5.741187966841736,-6.489153450802144,-1.8091393477199849,-0.6720940918908274,-5.8900317985703445,0.030958593943635426
1.58,-1.7534613362896554,11.051466751177701,-5.270862587404057,-7.292000176536316,-1.9974753417592568,-2.0964542749665593,-5.154395873721457,-1.9373990783676776
1.584,-1.77009037008092,10.39441627442266,-4.519647350161885,-6.947216268708257,-2.2795446744463654,-2.894136943264985,-4.042643495299744,-3.783940504498635
1.588,-1.1809594487832784,9.65124950551242,-3.50185782758456,-5.548604865570003,-2.271094435495766,-2.7631816519066117,-2.8875259005959886,-5.183960852122813
1.592,0.15199534993398986,8.948450534049355,-2.2752700924073714,-3.6443510516794166,-1.745386427354183,-1.8746074804973163,-1.9522205910219665,-5.972168786554285
1.596,1.9818542954557739,8.262752332934316,-0.9631058437736575,-1.9305348443978936,-0.7166623563112605,-0.7517028053333785,-1.3397206675802305,-6.157816252251957
1.6,3.8195029496368766,7.551017945606312,0.2509367714154669,-0.866300090094051,0.6044438984754463,0.03076492701999234,-0.9761893777866246,-5.852346059826555
1.604,5.2098408926419,6.870977721539264,1.1664707451782204,-0.44083349251639303,1.9271578510056564,0.14218116058921115,-0.6667723346295541,-5.162180256466092
1.608,5.96638743821338,6.394776324547813,1.635907129700664,-0.2320928496985355,2.9981366021071425,-0.37700743471668563,-0.19773520387509858,-4.120178394401121
1.612,6.230950486444159,6.298939304529945,1.6261928380845454,0.2807837965092993,3.6663523086432095,-1.2050811099947227,0.5521607953940926,-2.700839546778004
1.616,6.320458674522374,6.592472539915125,1.2304294032704028,1.3369711888169578,3.8705172632940394,-1.9590293301210948,1.5432072543031556,-0.8953409814737203
1.62,6.480431551775625,7.0178673467988855,0.6238855617195682,2.682807008402797,3.5984181220564553,-2.4019599713045867,2.5828206625147336,1.1986149303073286
1.624,6.709812706978367,7.100283010822681,-0.011783772467600873,3.6656947941050753,2.854857567738664,-2.517791458196802,3.3994267153052586,3.327924588922431
1.6280000000000001,6.776038379097237,6.356372514605047,-0.5501360479354553,3.5966468617582508,1.6801663791562105,-2.430123146389115,3.762202039771083,5.121347044775428
1.6320000000000001,6.400692545876431,4.555526824461824,-0.9319631847529801,2.1737880284545374,0.20688114747474495,-2.248585991162947,3.6066220708007437,6.210016934642882
1.6360000000000001,5.482326313502582,1.8809858276474334,-1.132926300367702,-0.27587106755736834,-1.3066027644031855,-1.9556383933055086,3.09768153208567,6.384497251081818
1.6400000000000001,4.214477136357845,-1.0860730654693298,-1.109448253917045,-2.8784100895108047,-2.4934845965223884,-1.41660377511373,2.5903382125980814,5.707763370376401
1.6440000000000001,3.0027041502261835,-3.572975472188081,-0.7709003036373641,-4.595011324310702,-2.9694007772250988,-0.5047565139866093,2.499154231111463,4.517399677574414
1.6480000000000001,2.240881828104328,-4.908421871884455,-0.0016371645171820437,-4.700842418696887,-2.4605566545327893,0.7486015210838,3.1180098116583883,3.3000811006122337
1.6520000000000001,2.0997059096705653,-4.7609565103338785,1.2822661287709356,-3.10545494346199,-0.9083498618196987,2.090748642270401,4.470513187975351,2.4885571975363328
1.6560000000000001,2.4482344477061795,-3.2454930645474316,3.0589825838470457,-0.358994110762596,1.4813637946816054,3.127352642073418,6.277024350945773,2.2821988142344396
1.6600000000000001,2.9698629801866714,-0.851395772781419,5.164105381194984,2.648219924362428,4.283487264716287,3.501931428928507,8.055024359316354,2.57232083096259
1.6640000000000001,3.3896049175070546,1.7511504947099503,7.311869357767273,5.113775401543814,6.977029515299326,3.0717593538360064,9.307246168519654,3.0151087250788446
1.668,3.65738587878576,3.9232766818502394,9.163379531625631,6.648440924562128,9.089136242915856,1.9774397952622507,9.71582324723423,3.2197714102324593
1.672,3.9737779180409074,5.226542953742244,10.422250756767443,7.338384659961358,10.323342566271528,0.5625613292129743,9.246698653642426,2.9451600350420364
1.676,4.622988559807563,5.494279491220504,10.902442802225679,7.532361209298064,10.617007566442135,-0.8084805147295655,8.115598234620203,2.2033423705205006
1.68,5.719706105445827,4.807304108043696,10.553237361442434,7.511920989502152,10.110834927390425,-1.923713537795586,6.650184660158128,1.2282337315236331
1.684,7.03100554555179,3.4068801362352397,9.4405199364923,7.250681776178287,9.050641284306925,-2.785825164193079,5.133029434740084,0.336787728622864
1.688,7.991787769261286,1.58203801052953,7.7047074740217445,6.402057453223946,7.661620537713279,-3.535588452815038,3.711725240502847,-0.23694015614935005
1.692,7.937464288329148,-0.4104727883428154,5.53801011521585,4.523699602536393,6.071660802591049,-4.29591789856296,2.417333627629598,-0.4416613791276367
1.696,6.443834980260657,-2.375064492652056,3.1811862908352673,1.4046479189599799,4.314067488530614,-5.0394540913780945,1.2558606261194947,-0.39946947580864123
1.7,3.5902147430984677,-4.1599090223502095,0.9193567163669834,-2.7000930238427125,2.3961880057694236,-5.571533065478286,0.2935971954256762,-0.3165459766957248
1.704,-0.004159097560988756,-5.624043247428816,-0.9562745708211258,-7.073752210578283,0.3900457982208483,-5.645239115116384,-0.3342779052560032,-0.3735589937217183
1.708,-3.390457346737215,-6.624392030924877,-2.2230571688211205,-10.78630852057017,-1.5216772351276595,-5.143793620243305,-0.5037373767779076,-0.6652689503988247
1.712,-5.639165627538048,-7.0215140528607005,-2.8028252080799607,-13.050693689873535,-3.0617085834240916,-4.216743267003848,-0.2136042485128411,-1.214959186863494
1.716,-6.178149954986106,-6.724960019005816,-2.8003501205599495,-13.513747385505035,-3.946670160722979,-3.275909208434795,0.3584476576766833,-2.0124501329665714
1.72,-4.981829495041991,-5.765559456467782,-2.472050714441778,-12.346841317024321,-4.0141843043543775,-2.836468229080959,0.9121427161786269,-3.0309052795996614
1.724,-2.535979918478771,-4.3420746818301215,-2.1329888625282067,-10.109858853231596,-3.3163301852746074,-3.266626704949197,1.1717581446106662,-4.199410649831463
1.728,0.37331868438111715,-2.8113589585130425,-2.041077394392873,-7.48467740766882,-2.135870291618952,-4.5774003699710555,1.046228466731907,-5.355433721731662
1.732,2.9432411335689475,-1.5956122871808767,-2.3090344749471243,-5.024059277179887,-0.893057135058485,-6.375115127087369,0.6956455001762187,-6.243554486314595
1.736,4.5931417820366445,-1.032596223297862,-2.8859284491514043,-3.025680242441654,0.020405375183787378,-8.014992757782224,0.45370441813186635,-6.597205811467655
1.74,5.079489857181069,-1.240073027540791,-3.6128969662626984,-1.5637617274282576,0.39133402305109133,-8.888924810170824,0.6322202999779913,-6.288845461403798
1.744,4.48326711808852,-2.0611234326688628,-4.322071446297344,-0.6097318019667957,0.2470991435164649,-8.702435347805334,1.3184900353026476,-5.451812808788949
1.748,3.113251051010652,-3.1312173497792246,-4.915063518397201,-0.13768991260786478,-0.19577224302250418,-7.599510647016023,2.2974108931729376,-4.469050047288672
1.752,1.3930909098122302,-4.032617545834837,-5.377267389716836,-0.14389123068510568,-0.6558300109373398,-6.077116315024843,3.141057726667107,-3.8166757421131576
1.756,-0.24023037759726407,-4.46984257057534,-5.732829458211587,-0.587697665847541,-0.920457611530094,-4.732202057193002,3.4251035976543625,-3.821970064603678
1.76,-1.4210791823051991,-4.388607870404471,-5.987741533136613,-1.3266118197074226,-0.9325844546697812,-3.9769902222508122,2.958605256573398,-4.47458707283505
1.764,-1.9188154763098573,-3.9755712064358035,-6.109060808128739,-2.1157453454395725,-0.798259649638946,-3.8660358010800038,1.8992667484674421,-5.407275918321849
1.768,-1.6886720926179262,-3.556016384321776,-6.061799035147191,-2.70115666296157,-0.7287554254841124,-4.12082745821772,0.6916919699990848,-6.076012008158521
1.772,-0.8950830870969442,-3.440291353085569,-5.878062779421178,-2.9606862483432637,-0.9440146941031813,-4.336129107588123,-0.14001914516878378,-6.056728596124262
1.776,0.12242394948167612,-3.7897769622196975,-5.6981479994406445,-2.994761797110359,-1.5805641019893684,-4.245601703383162,-0.23067332284650988,-5.281067429798806
1.78,0.9471065272576638,-4.561697179880045,-5.740092609937993,-3.098933041087782,-2.6387817664279143,-3.8937895323810365,0.4743888172732462,-4.072833994432326
1.784,1.225155657199707,-5.542266888386134,-6.2005277149628935,-3.6121567380853596,-3.975542820795275,-3.6188910455960186,1.7284745434720254,-2.9610775148284225
1.788,0.7993110054418391,-6.4420929542565855,-7.130770137890474,-4.70731043056953,-5.334937950836965,-3.8490723901040145,3.1370388066109522,-2.363969119950241
1.792,-0.22793633346431363,-6.990916956233172,-8.352657473110282,-6.251611502423466,-6.397100324083998,-4.831193076445947,4.358733008685397,-2.338401660461802
1.796,-1.5500914906776078,-7.002192699135965,-9.481356870034027,-7.83078531935702,-6.848098405955864,-6.447887080206414,5.2441975221067825,-2.556365821112272
1.8,-2.8014878146977376,-6.3979854937601885,-10.063167838792818,-8.927548700972785,-6.466371597456972,-8.223707316221747,5.850493506153143,-2.5205115624172576
1.804,-3.743906020540912,-5.224120415201703,-9.788078023489236,-9.181081420530134,-5.218016911476037,-9.527029697962682,6.333061241108501,-1.8903874126306865
1.808,-4.4038120565632415,-3.6754740011132534,-8.676929715514312,-8.590252531041267,-3.3289552558123874,-9.861588906016433,6.78582535634829,-0.724545363609267
1.812,-5.0582700032416605,-2.0932606572365327,-7.135986834650822,-7.536626630135222,-1.2694624757460673,-9.095468220382712,7.134172226882166,0.5114250632525259
1.816,-6.067525351526682,-0.9151633952451688,-5.832007384943703,-6.607315855693045,0.36884013525232007,-7.505829048365708,7.147992244398142,1.191216748098588
1.82,-7.637407168619056,-0.5718384062032023,-5.434280570494271,-6.303752283206706,1.0682692596400711,-5.622671191692017,6.5713335301875455,0.8847186185782581
1.824,-9.6283244066404,-1.337681222522252,-6.332295711456584,-6.787832786093497,0.5796493483790357,-3.9650134813827416,5.295735557023537,-0.38514811208055955
1.828,-11.53890319433254,-3.2002625898475463,-8.449728924576148,-7.802349790900094,-0.97929932027801,-2.8173909112223567,3.470529533218687,-2.136284190436699
1.832,-12.690248623508216,-5.801048805883653,-11.236294117830194,-8.800557789669705,-3.1621411823127805,-2.1630894176013795,1.4853041914242877,-3.6817487929898602
1.836,-12.52829713087996,-8.495987641878111,-13.852191331431873,-9.218738228540435,-5.356420662962783,-1.7920967285907232,-0.17317559236768854,-4.496813526797438
1.84,-10.906237773843799,-10.5358036018329,-15.473104489492664,-8.756479532573223,-7.0012330191664836,-1.5056189359690109,-1.1252745406576214,-4.482967047189764
1.844,-8.201307074829561,-11.303767808316364,-15.599258655075847,-7.525679185932261,-7.766011099798021,-1.2914806686529017,-1.2730527623755572,-3.9790850739161874
1.848,-5.192043523498765,-10.52608316265761,-14.23830730529238,-5.996445585165485,-7.6223673832057015,-1.3655672730962647,-0.8464442279005961,-3.5245108555309717
1.852,-2.7303677874021473,-8.3506348663471,-11.877415474220163,-4.765019297618809,-6.778908794742025,-2.0480661851096906,-0.2808374490271335,-3.5153134471217626
1.856,-1.3700164603691272,-5.272324164642063,-9.259733381923681,-4.263608302738077,-5.53577300037634,-3.5450012200162417,0.007672910508636943,-3.95578557188847
1.86,-1.1499326260647071,-1.9583151572763335,-7.081746904069957,-4.570514858378889,-4.158705356939349,-5.768143532892324,-0.1653907481997643,-4.45834846849795
1.864,-1.6293695306281313,0.9570917687422913,-5.738473030852951,-5.403305652133468,-2.826808015230328,-8.294424029287637,-0.6606022480820846,-4.476516610025059
1.868,-2.1481315566281123,3.0307827257134154,-5.223182341526228,-6.279122189548074,-1.65460372796095,-10.491190688164812,-1.0947189999491358,-3.629296699868804
1.872,-2.175070577304938,4.084436970142804,-5.213869312087691,-6.758663970954522,-0.7374700409124699,-11.75848977608457,-1.0534464508064731,-1.9260288938255172
1.8760000000000001,-1.5607262095513068,4.189925475636784,-5.2900871548484965,-6.6448380737980095,-0.1691520371602626,-11.773896301490005,-0.3257656093088612,0.23354440006072785
1.8800000000000001,-0.5679338736159538,3.5959571891006306,-5.160177417936934,-6.0399397631326135,-0.0028998654905636467,-10.620606259338615,0.9688055879875856,2.2766838799799656
1.8840000000000001,0.3119244319192682,2.6244953489727187,-4.79964702004269,-5.255334837491511,-0.1958755309044613,-8.744126836826496,2.417590318393702,3.7473549117566005
1.8880000000000001,0.6400766988056064,1.5672149783438125,-4.439140196990939,-4.630884229271577,-0.5950859738263632,-6.759205190379115,3.5010654082495805,4.502654118475937
1.8920000000000001,0.256150558790883,0.612961574287533,-4.416863740214595,-4.3645583709151206,-0.9858764206147037,-5.206944509957381,3.825523165329819,4.698866776437995
1.8960000000000001,-0.6604809767032835,-0.17506541850084245,-4.972972156027573,-4.428821920978861,-1.1883309770675616,-4.36591860574865,3.2850526722900897,4.602604266085601
1.9000000000000001,-1.7088496496653482,-0.8377066582554173,-6.095159760790707,-4.603145225793751,-1.1461891263178643,-4.188878939593125,2.0889565818255535,4.37001770556242
1.9040000000000001,-2.484394832977635,-1.4665168306684664,-7.492968052542365,-4.601448144714635,-0.952035564989643,-4.382542025333438,0.643033951913353,3.938175858699888
1.9080000000000001,-2.7671034825189027,-2.1399269410934316,-8.707444599670268,-4.218330817877384,-0.7842193785878964,-4.578237074678479,-0.631950376223315,3.1023331045816755
1.9120000000000001,-2.5863732344036188,-2.8665775287888535,-9.299643865263478,-3.430776151661609,-0.779088258303863,-4.516873669080521,-1.4439118492789274,1.7129002281523897
1.9160000000000001,-2.1652254346632227,-3.5750447716096665,-9.036678056030121,-2.428894514551841,-0.9298013589415213,-4.168429089911099,-1.6903894690130072,-0.15563028283268743
1.92,-1.7956012540408033,-4.157118083757093,-7.993690409437238,-1.569212012409535,-1.0871465651232342,-3.7308231975710506,-1.436329409428616,-2.1814484537806798
1.924,-1.7270015182073077,-4.537829907987331,-6.533780871727508,-1.2681840372258244,-1.0718581749713536,-3.5138814563998753,-0.8414778918962962,-3.938218416821161
1.928,-2.115220880743009,-4.72735551351877,-5.168279207346416,-1.8665971110568689,-0.8321677046564684,-3.7659213058095027,-0.08748911557407957,-5.112763168324621
1.932,-3.011303140276052,-4.802471594248589,-4.351206140875309,-3.495325402770807,-0.531016446816964,-4.532390020318314,0.6627366749312489,-5.65458212184908
1.936,-4.369212392722229,-4.823575371793706,-4.291772254300382,-5.982419659911162,-0.49214906183656204,-5.617269283467918,1.2831204970488002,-5.754177106372663
1.94,-6.053398119406911,-4.744025748425516,-4.8643508445958545,-8.850604220598935,-1.0179372035599252,-6.665464268435254,1.699875311693463,-5.671946907019854
1.944,-7.842996448499586,-4.386345535328637,-5.669885082702295,-11.431041558727468,-2.189511086146485,-7.330939287427865,1.8950712844864381,-5.539849292596209
1.948,-9.46146306514412,-3.5292511598206966,-6.223781552243047,-13.071870840291766,-3.77204700432564,-7.434029224893745,1.900823638548553,-5.264503816278527
1.952,-10.638668222092946,-2.058181963206884,-6.176768038912053,-13.366060187753313,-5.281631305156588,-7.02253054729768,1.7809406749583543,-4.600197250489822
1.956,-11.197408894513778,-0.10032774699319802,-5.466813060496013,-12.304324892060363,-6.197998205784582,-6.301281963419353,1.5966470596618887,-3.335846652752693
1.96,-11.108349642838942,1.9591898852634058,-4.314411325218719,-10.265918836133832,-6.199591958237749,-5.467884789565478,1.3898096329831522,-1.4550497437388152
1.964,-10.468951839094679,3.6211547052103574,-3.061676736883423,-7.834940724170691,-5.28917251080035,-4.553749137959334,1.2009127818157166,0.8439083167324211
1.968,-9.428318776080848,4.502495520151616,-1.9508616038641744,-5.535067052533466,-3.7584163392871552,-3.3844021576978602,1.1087840180420292,3.271664038387331
1.972,-8.105537245773437,4.527234360831551,-0.9806163036446138,-3.6313148259629835,-2.0287779191603095,-1.720600256875568,1.2438380253694432,5.600642995266809
1.976,-6.571693579705215,3.9425479316460263,0.05082002579126588,-2.11786616881074,-0.4836405128979404,0.4805581488685162,1.7194048824094148,7.706793955115969
1.98,-4.929344451112772,3.121183311790623,1.3134840435910853,-0.9072808779041996,0.6008646894397929,2.836235946376041,2.472663884154608,9.447755977110212
1.984,-3.4374314063915232,2.2578285459103045,2.654057047163314,-0.10108978610696862,1.0039074525360254,4.506472663655454,3.095842760758118,10.463551357123603
1.988,-2.576813653449342,1.1485638521974864,3.4488746269362673,-0.1434038680780998,0.45658958033591146,4.441433941000114,2.7893479898639786,10.085074059320828
1.992,-2.9572463059856817,-0.7672667863204512,2.7626679040413338,-1.706067398707937,-1.3699638645092906,1.8384060353663143,0.5566989022108044,7.509215429284373
1.996,-5.050192788776591,-4.078060982608948,-0.19024845706832272,-5.302773887155038,-4.707814338431055,-3.3906934446621984,-4.348675067154869,2.2376935449698543
2.0,-8.861066575688552,-8.943470050272499,-5.485778005078293,-10.824403460000251,-9.424796817213787,-10.38643812579903,-11.895177008160212,-5.434965954236589
2.004,-13.722511900062026,-14.769976651566608,-12.152427303555806,-17.278367289960755,-14.808624004257103,-17.5003454214039,-20.934831272413717,-14.191085296868758
2.008,-18.37416158581925,-20.256473492096887,-18.308193707882303,-22.9477439855919,-19.59061942990291,-22.817230269873093,-29.31860913166124,-21.936145141459036
2.012,-21.3550096198433,-23.84349812551602,-21.79416367357244,-25.980144088562056,-22.28078052076961,-24.83289944629066,-34.531361818546884,-26.504011713951286
2.016,-21.552594603837854,-24.37344392543602,-21.055924973337113,-25.158292153920357,-21.71867493450834,-22.988850412991088,-34.635443821749135,-26.523363586712673
2.02,-18.66070207799479,-21.642088609864864,-15.85951959945898,-20.47465975350331,-17.601741678720405,-17.82949886620863,-29.119148462845033,-22.020397907561843
2.024,-13.331267004459384,-16.551001847111028,-7.476687881628694,-13.204069664820192,-10.718294721286295,-10.725716824415908,-19.227874256811077,-14.42840709516103
2.028,-6.9319011250488725,-10.76643177171422,1.7872368852432152,-5.400292385574373,-2.7376248781783974,-3.3147774946988813,-7.563750992809828,-5.973172948053163
2.032,-1.0194870177185265,-6.041833826185899,9.506172681796194,0.9459407984648092,4.380668898673724,3.0696675036309133,2.8932431609612337,1.2523793461709425
2.036,3.2157254858662943,-3.5352216834286225,14.058046270847399,4.676672585576712,9.098604671701038,7.73384753105221,9.90568455294509,6.067139332836709
2.04,5.2933955606134075,-3.44103645371265,15.127345018115971,5.803135143445495,10.813649640776038,10.628938246758935,12.724458038311163,8.458456820601869
2.044,5.444842805417994,-5.083341057618457,13.580517439195386,5.269434820328572,9.948625556698243,12.103574167060291,12.129150700989086,9.24177666274846
2.048,4.324517882379112,-7.382854129017348,10.840324347077846,4.307635484348154,7.59929041648226,12.589938153887413,9.797020632246202,9.375414893775243
2.052,2.620915140513829,-9.418904893273414,8.134073025534972,3.7524529500191135,4.947797996262107,12.389725935361643,7.366831267281935,9.344106168275072
2.056,0.7737668007343821,-10.804448296949552,6.018626145954236,3.6802250956421263,2.7398490401531466,11.637861798154134,5.699359063721442,8.960229081767324
2.06,-1.0948310260311658,-11.72109814115997,4.383068543246984,3.524792235965024,1.0648424652674762,10.398999962480577,4.686582738441171,7.65878266885536
2.064,-3.04755365113801,-12.645767108084975,2.8403331919558075,2.5539043652108653,-0.4904717779652563,8.783922463801707,3.635568579527022,5.062462673042574
2.068,-5.1238180910084745,-13.974114264671964,1.2037075421252583,0.4007379726986706,-2.4493279523384563,6.987892461859167,1.9310924246152674,1.4322121258637979
2.072,-7.191010149338247,-15.746453587742339,-0.26636060512758486,-2.656728220197851,-5.038157839595147,5.234564665652465,-0.44540463659854046,-2.2935386170370973
2.076,-8.936971615146783,-17.6046986434828,-0.9895603060660432,-5.804677832100938,-7.988984262447615,3.6888796882921495,-2.8388209249004785,-4.902942888247273
2.08,-9.996433062775079,-18.979663864820722,-0.469486683155405,-8.103638676603406,-10.651157805901429,2.4177008434478067,-4.305251819585976,-5.534679938961949
2.084,-10.130629396349399,-19.385073705291962,1.301321354771245,-8.95432906742413,-12.336211267872784,1.4239421228334526,-4.209883499423936,-4.165794468304934
2.088,-9.35711444762579,-18.660792072893976,3.711350118082401,-8.361492976875045,-12.69770203077018,0.7197041601375062,-2.6476129955214964,-1.6791852362466388
2.092,-7.959798384408314,-17.0485916568892,5.7767381001723,-6.877631483140786,-11.936557791897854,0.36393547447959407,-0.43687114014400985,0.5257512380351175
2.096,-6.38452691450282,-15.087761968134764,6.633696998052888,-5.2902302993914265,-10.723796098747531,0.4146395535142371,1.3039377024282999,1.1757688941027298
2.1,-5.061003086807208,-13.387107645863129,6.0015588280917225,-4.237692213490221,-9.877549087698625,0.8287763515973761,1.7489029513556336,-0.3034323539679227
2.104,-4.228631465147386,-12.378575992741139,4.3487951658306745,-3.949399388524961,-9.958810922850677,1.3936178064547564,0.7863657770382608,-3.555266255843846
2.108,-3.8604772945901225,-12.17201673489125,2.6610726818403165,-4.227174409956485,-11.000450611786764,1.754218885164951,-0.9670513349775725,-7.492755626872083
2.112,-3.7061803456388698,-12.55131397354743,1.935087834562259,-4.630813090986203,-12.495290462865517,1.5564903765584992,-2.5477649807659906,-10.797303933319782
2.116,-3.4311223366645383,-13.102884352137892,2.6669901663376665,-4.74036451071775,-13.657222327623405,0.6406842830858355,-3.191925391735243,-12.460227247602488
2.12,-2.805439974622777,-13.424707024355786,4.592119855672571,-4.368014957747093,-13.830381633341252,-0.8353668850369482,-2.7402078771259184,-12.130709726969602
2.124,-1.8493630618456418,-13.316539976456081,6.802483079547068,-3.6271272958799763,-12.83775407792356,-2.4359938523625804,-1.6935537632902875,-10.150132582827258
2.128,-0.8596247773248376,-12.863265703835662,8.178866724451764,-2.8531410715946155,-11.092871430708076,-3.642908617043086,-0.9037659103186382,-7.315141811899826
2.132,-0.29109039657198643,-12.365821294750004,7.916561160961491,-2.440315347579178,-9.40866597341532,-4.102980266346144,-1.086780013630948,-4.530210896917682
2.136,-0.5420150505793284,-12.151594131506862,5.894282939355504,-2.674859621255978,-8.599640460632799,-3.7907997925535346,-2.432614666184511,-2.506476248055707
2.14,-1.741390962543326,-12.364052533094132,2.720624945066014,-3.6270416677755213,-9.077645840928394,-2.9962781826107556,-4.5098168028108825,-1.6082030854102238
2.144,-3.641210905106271,-12.836625769428718,-0.5447573846199791,-5.12685222748806,-10.640669095355168,-2.145553813876923,-6.493494709664669,-1.8556112435358827
2.148,-5.6801667079379685,-13.134928732195593,-2.8436145913740747,-6.8113060564792285,-12.563673266968985,-1.5583416636473837,-7.572231059492357,-3.0128128657982893
2.152,-7.201355496518941,-12.758686527554133,-3.5351880019251527,-8.228787937454994,-13.94015132156164,-1.293204587046307,-7.32770910482503,-4.702195108967055
2.156,-7.724037759965588,-11.403585976969925,-2.6013005612075966,-8.97052722772289,-14.101917278048592,-1.1709894846303257,-5.908997947468207,-6.507911715203008
2.16,-7.142417268709867,-9.146117552147022,-0.5703796490662727,-8.792854427235893,-12.905424794861013,-0.9498065787273671,-3.9355818393605304,-8.050653207060778
2.164,-5.753327527265102,-6.4403033595635115,1.773979553126063,-7.697595540709752,-10.751267087533197,-0.53649033648745,-2.2003033764218944,-9.050489354737994
2.168,-4.1212245414724835,-3.929472077665862,3.738641688322247,-5.944118709320311,-8.3536277974836,-0.1042873047552284,-1.325145510579043,-9.391053027426942
2.172,-2.840648402886505,-2.159461280908235,4.965383076529356,-3.975617154334853,-6.386226472042118,-0.03326727626785342,-1.5239683225432872,-9.159315891453115
2.176,-2.310725619050589,-1.3498847965089777,5.484894322369642,-2.2769035087588305,-5.195639266375739,-0.7026307712293676,-2.5560244373184418,-8.624740990516848
2.18,-2.622484432528523,-1.3496111174202081,5.583592179931436,-1.2054846224120306,-4.721851827873728,-2.256623942507333,-3.8714567581075183,-8.147320675515047
2.184,-3.5862289458164858,-1.7856864675151938,5.5774750835028595,-0.8668513296097387,-4.63586816284717,-4.478830156162157,-4.871908752303056,-8.041603376534226
2.188,-4.8659561149493555,-2.320442453404203,5.618647189993634,-1.0917038127059042,-4.603424015564264,-6.8451952866019194,-5.180148881542611,-8.46002202091013
2.192,-6.131386673728989,-2.853673691188058,5.633630540812433,-1.525173281911028,-4.504697263242792,-8.730544930101463,-4.799478660318459,-9.348794198099869
2.196,-7.163291016063825,-3.5550314233313034,5.4036013095396624,-1.7988948122675916,-4.498508273679328,-9.662333264747383,-4.10731952727973,-10.505495830152766
2.2,-7.889736228925092,-4.7098689915627805,4.725871211491718,-1.7099380814868623,-4.908899946873168,-9.498016478028475,-3.6933356496259737,-11.702219603149409
2.204,-8.36306841507302,-6.474640484208623,3.5457725305204457,-1.3257078424362034,-6.018860381159919,-8.452063534118667,-4.103138824305549,-12.806598834997166
2.208,-8.700142049795765,-8.690423032720593,1.9934859702406516,-0.9527644024021324,-7.888584928594504,-6.969355921830715,-5.5851774221950325,-13.815924274909623
2.212,-9.013568400860892,-10.864763314398541,0.32025232385262203,-0.9790602394157353,-10.280717921756366,-5.526273433251225,-7.963308688655974,-14.784750758946757
2.216,-9.358979908348203,-12.346380762129462,-1.213817415284077,-1.6606798021986036,-12.711131878996376,-4.459064100459855,-10.682935570291633,-15.693021258024014
2.22,-9.713076913487368,-12.607781759585349,-2.429473278374651,-2.9618327094186854,-14.59026123362964,-3.891781363812221,-13.016998369062147,-16.356589474259266
2.224,-9.98668776338421,-11.484515531722437,-3.2471398438167713,-4.537163385503167,-15.38834593741377,-3.7739807074331413,-14.348397619358284,-16.46720041050329
2.228,-10.073185386465443,-9.261397265495138,-3.642816335897241,-5.874891474661765,-14.778836570658042,-3.9812287473951704,-14.40160951420605,-15.764894498707504
2.232,-9.91262457180486,-6.562718488258054,-3.5935594704449985,-6.530317136919401,-12.727969127473933,-4.414603359993635,-13.321462314221986,-14.253938853349535
2.236,-9.537864615177666,-4.104207165462879,-3.067646191379429,-6.332150776791361,-9.529399200692794,-5.0456809184132485,-11.575900880791384,-12.327345267936758
2.24,-9.072880969872338,-2.429507816613384,-2.0722076814314865,-5.456979645559647,-5.771132123283084,-5.891968614959526,-9.740524151337857,-10.693118573938015
2.244,-8.659281941517168,-1.7350262649299844,-0.7199215319143044,-4.326482937115076,-2.212678326573138,-6.947630573940591,-8.272905125351334,-10.092149220340628
2.248,-8.347745012111206,-1.853506903466518,0.7475958922380022,-3.3824669745191667,0.41508655494103786,-8.118864663434435,-7.379981303455931,-10.932255649364166
2.2520000000000002,-8.018862980835875,-2.376609109883641,2.018033606034588,-2.870833490467614,1.6489954569362795,-9.20870555793111,-7.021577114749474,-13.035469168342848
2.2560000000000002,-7.389531375588817,-2.843692698604155,2.835173219364266,-2.748557545986121,1.4849283367420212,-9.958112542450111,-7.010841018008698,-15.643120477286798
2.2600000000000002,-6.13712040981908,-2.921560723976437,3.1282262260816847,-2.758973566271774,0.41211677356341747,-10.130931823907924,-7.129196663915383,-17.70363746714556
2.2640000000000002,-4.095073944805295,-2.5034708075434406,3.060414066157517,-2.627439636190695,-0.7587740704486023,-9.60759787376615,-7.188294635809361,-18.315888857090997
2.2680000000000002,-1.4147137328803128,-1.7108113810397338,2.9480833554168924,-2.248195638676912,-1.231758869932269,-8.440744624629044,-7.032101063804805,-17.108104701340608
2.2720000000000002,1.4110368392224353,-0.8060940714292022,3.0865322755424875,-1.7441198851771935,-0.5815643660595167,-6.843782896414739,-6.523822573720974,-14.37283575054405
2.2760000000000002,3.6996087439415457,-0.0623755103196415,3.576226714160533,-1.3616600843025903,1.0480960094903589,-5.116574519500952,-5.571088603083227,-10.895320746959413
2.2800000000000002,4.8665377350742896,0.3660414555591185,4.261078892071019,-1.2580261627216567,3.0259493090251537,-3.532273898325268,-4.189133173447567,-7.568974453864309
2.2840000000000003,4.704403888002312,0.5210862316722302,4.814030719209244,-1.3309325767257665,4.567300269884366,-2.2373276697508757,-2.562969909903968,-5.001298193726948
2.2880000000000003,3.4974700549883178,0.6234642904867451,4.925911073312587,-1.2152683915863847,5.142323158279543,-1.2142219585670768,-1.0504266846315318,-3.303178893693401
2.2920000000000003,1.9135514315546018,0.968287317503945,4.4893875764688485,-0.4726047690789983,4.744122438649006,-0.32851994119886285,-0.08232947963280157,-2.1537781255986914
2.2960000000000003,0.7106464667697114,1.7714958767700377,3.6666055554362584,1.1252409061769857,3.8665613167871804,0.5610061850685923,0.020651131375793108,-1.0726957636542953
2.3000000000000003,0.4052482596704765,3.0439659952284908,2.8099649681320362,3.3940041681430264,3.2130850565906273,1.488403181980914,-0.7743473264639718,0.27218734897865415
2.3040000000000003,1.0709835641494392,4.562904869110548,2.2842400680483714,5.752231763407212,3.3109515728285044,2.3261094201739443,-2.1464883799291035,1.8951271842939432
2.308,2.357624046755305,5.9537647273703955,2.2921403837062577,7.469767053547224,4.245194257223426,2.8262869383725775,-3.522065238352709,3.5305267398283062
2.312,3.718426948699495,6.870822004916403,2.811205523568293,8.036497910860048,5.677113516455609,2.7536091575104695,-4.30371060796236,4.828306802750452
2.316,4.711406492746492,7.186493952251197,3.6614700934196804,7.450659831889771,7.114733592880919,2.0445091101355564,-4.117391548667015,5.573904094757474
2.32,5.214242059595238,7.08552422087703,4.6490883052599115,6.263874365252454,8.2566919370059,0.9037849508171947,-2.9483905223576503,5.804135015893822
2.324,5.452387772046724,7.009056593897993,5.6881877824124185,5.345518753254359,9.190717490994379,-0.21930901874927766,-1.1087807352904084,5.76327513952296
2.328,5.833836369638606,7.449963196906953,6.816927530345303,5.477874343085377,10.304533060488128,-0.7834825158006589,0.9309266336923652,5.744781935544171
2.332,6.692047170034686,8.697642378735807,8.102298765741054,6.980886398849965,11.968583708241534,-0.3834682107241596,2.7456969741053925,5.92134074393107
2.336,8.087253813876089,10.670566203243276,9.518462037149913,9.563188012328197,14.200628284222294,1.0595262713896276,4.090229845184595,6.265014002209524
2.34,9.762202013860819,12.923784985824625,10.89529403440814,12.465769965716913,16.53751290967503,3.2334848717653224,4.916546533548326,6.596580497783654
2.344,11.262311199205996,14.840881029887534,11.979233599843619,14.807394385321064,18.215877520857042,5.5314531888209535,5.307669552666902,6.71458498340799
2.348,12.14339845820117,15.911985994398936,12.57315057349507,15.94917510609851,18.56136818988506,7.274243517289887,5.396969880756558,6.520502440317713
2.352,12.163155250697669,15.95960961639118,12.661480010956904,15.707515706690627,17.36322391861852,7.962690735087757,5.328346995505338,6.072326911563983
2.356,11.376491738933488,15.203485526306363,12.427084941277158,14.342255448679715,15.009916350670373,7.45154593048387,5.264769265122033,5.549423479142943
2.36,10.090444744595608,14.120521891753857,12.134192176670023,12.355643136400149,12.292323239957778,5.965592923088316,5.394540159795959,5.156086636482552
2.364,8.723800884492285,13.187216523228116,11.942823769400226,10.242180558675825,9.993073901842065,3.965941194554512,5.879969533639226,5.0269713488366925
2.368,7.639046302063302,12.641975295866294,11.778467482773387,8.325550280442052,8.497983456622638,1.9436227926328984,6.762005764793695,5.183993151007573
2.372,7.025219252177157,12.399831346111803,11.353955003351768,6.745368313120872,7.657998215318378,0.23732110756963998,7.874548280968426,5.552215581674382
2.376,6.868523352875648,12.15395131090907,10.34372080069765,5.555894340633958,6.967012920612389,-1.0491409548915769,8.839542757833566,6.002941467021471
2.38,6.992307237386579,11.590698999522107,8.60744731457251,4.828113576172405,5.932408825857816,-2.009936755652509,9.194636434073427,6.3879420227622825
2.384,7.142041658066055,10.592425993092897,6.321587707845568,4.668104620892789,4.407288493071821,-2.8138657157626588,8.60484623745543,6.548256575546505
2.388,7.075631330384199,9.300693449480617,3.928346817927213,5.1358731171867715,2.6787763169087153,-3.568947500426326,7.050899562314453,6.316700052444853
2.392,6.6341295842629355,8.013963672738722,1.9146777166942863,6.126015536051189,1.271513174604336,-4.245228284529862,4.879106575196134,5.5418509335727215
2.396,5.777639633468713,6.9885623146879805,0.5485353710525098,7.306930054014233,0.5977736091753885,-4.685340018408992,2.6680054941475166,4.14955942954154
2.4,4.589535813456731,6.273509893999632,-0.26575577118506466,8.189885115883818,0.6750808849930872,-4.683463672833437,0.9694934679221854,2.2212632605490112
2.404,3.2480871155340876,5.684934229793542,-0.9223663740092953,8.30972611288662,1.0849991700011632,-4.095512352142844,0.05868062560569953,0.03598053452271888
2.408,1.9799111236199387,4.933899316868058,-1.865605983835362,7.437237994146354,1.1990418940713083,-2.9201410973218938,-0.1637694593273764,-1.9592016352254387
2.412,1.0000529037379293,3.833308057302817,-3.302487405670934,5.703026875283721,0.5384691114797162,-1.3188966525698738,-0.07110878743252869,-3.2707468316951847
2.416,0.43681064159917726,2.4409882498117312,-5.057634402442318,3.5398322057251494,-0.9473060294083697,0.42139193429946786,-0.07633307967551106,-3.5440719201082924
2.42,0.2850484666480563,1.0572587031939027,-6.6447313145029625,1.47543531474951,-2.827469389929793,1.9687577382784158,-0.3901220621616024,-2.72533286085386
2.424,0.4043290375049091,0.0773824527350997,-7.518221314049684,-0.1205025549457317,-4.3844966157140215,3.0351856283706917,-0.9104067256096879,-1.1180957109441145
2.428,0.5598054851986909,-0.22497811282558722,-7.364575790017539,-1.206000282537607,-4.953645424044361,3.4462363050425284,-1.298032978004712,0.702374333398101
2.432,0.5156337289561073,0.16586346645368,-6.2625568434707315,-2.050376384080492,-4.2239219653098665,3.1750511297546793,-1.1822959327416065,2.092855924675505
2.436,0.13287342996403617,1.013133710940239,-4.637725669801743,-3.047510553940587,-2.374056490004353,2.3329156528195956,-0.38396224048196803,2.587222424141215
2.44,-0.5742756841046812,1.9625133780951058,-3.047560130974513,-4.463066344596646,0.0030271099628897957,1.124437928084975,0.9746580906390219,2.0733189942003403
2.444,-1.4473849600908364,2.7222915817754805,-1.9220136000919636,-6.259201098517394,2.129753395636326,-0.22075680393896002,2.509088129825839,0.8142080552751718
2.448,-2.2622661183085833,3.168967724386909,-1.4029693813682658,-8.097533070075693,3.3130131931570945,-1.5151445318362895,3.732540942114768,-0.6960061348714985
2.452,-2.8492674271319935,3.328315174435293,-1.3522797644734865,-9.524401317268131,3.1552730495737156,-2.659728847972459,4.245724876494286,-1.9781136172209488
2.456,-3.19390177391534,3.2659150080154826,-1.4952996460925714,-10.228844118208563,1.6532400686700446,-3.646288978552002,3.8622092221069795,-2.7958652554149808
2.46,-3.4556416900439335,2.9818522965274994,-1.5896905597368034,-10.219868092423336,-0.8265036295263561,-4.514992713303568,2.638036948798636,-3.2538544410385613
2.464,-3.8770655564325915,2.4029489757670675,-1.5183714345043249,-9.811896353607882,-3.6666486441528967,-5.283586280532855,0.8251703340671823,-3.7167484753812934
2.468,-4.634356643230971,1.4694378036270637,-1.2838080696899636,-9.428528250185963,-6.184648237205746,-5.8903816945873855,-1.2145578686329683,-4.58891174804881
2.472,-5.692830676150134,0.2622525600161325,-0.9325966185230145,-9.33352626456648,-7.829749981345595,-6.187093098200436,-3.0925661955021653,-6.0611984864386
2.476,-6.765972264941958,-0.9397182041158505,-0.4885022475543036,-9.453734188264185,-8.345361085713343,-6.003916753176095,-4.46042545150952,-7.959256296775925
2.48,-7.410070053620993,-1.7373769643368102,0.059068917894254724,-9.406974592223083,-7.834913575311574,-5.257532980391883,-5.061253594449397,-9.780462986243544
2.484,-7.221440108401439,-1.789575650054247,0.7147720977966066,-8.727708981529428,-6.691344898056609,-4.042026356482378,-4.779166778983221,-10.907395840758639
2.488,-6.051644156359126,-0.9983142850249446,1.4313769018836373,-7.166317538588252,-5.418147700494487,-2.6460357825718406,-3.6770368409303176,-10.902284658103014
2.492,-4.12273981384756,0.4220605941409161,2.108249289538971,-4.894471848127596,-4.409408936065093,-1.468250170714012,-1.998942064538988,-9.734703925455191
2.496,-1.965100758007324,2.0443791650143064,2.6447696770089015,-2.4883611443587554,-3.7901247520250174,-0.8525912101972327,-0.11411905376108877,-7.820322224697149
2.5,-0.20592555543663882,3.433825441435121,3.008892913063042,-0.6864697707639262,-3.4005724692130572,-0.9238256474358753,1.591930941501392,-5.8507426925593204
2.504,0.7039628353900595,4.350105308320075,3.273281350789425,-0.03897317595570504,-2.921855752559573,-1.5119809158751387,2.8470680376704687,-4.486132215604781
2.508,0.6856224667193787,4.824221200856326,3.5829267582232744,-0.634824068007154,-2.083769066800303,-2.214419825462086,3.582048780846336,-4.059778082435421
2.512,0.05352200630346937,5.072996233995331,4.070366874364509,-2.0535913564946684,-0.834791895506279,-2.5801411465493382,3.932994757893508,-4.449960218022662
2.516,-0.6449376907635133,5.31521877142305,4.773374544016863,-3.5631896566020824,0.6201787517876847,-2.32521754248703,4.157050219821201,-5.167609838674462
2.52,-0.8954289905071773,5.613189354860033,5.606534949815067,-4.463713084680531,1.926532316739591,-1.4713653426107598,4.492281248665384,-5.617499359916181
2.524,-0.4455966897997905,5.846211579559707,6.39800342358979,-4.401811187800728,2.763410261608233,-0.32740519472677243,5.024652647407021,-5.401929237928132
2.528,0.6029278025358586,5.815228237464186,6.960422213967073,-3.504710868554035,2.991449066206277,0.677943751952844,5.628588373193513,-4.506659129268222
2.532,1.8775420623825714,5.410752755470209,7.151005553780586,-2.2828022831703247,2.6927775096266418,1.2244342066582992,6.0140272948457,-3.2744352795304397
2.536,2.9379693209737274,4.725386956440132,6.888340143230346,-1.3616492002905745,2.091409681855643,1.2635663451825498,5.8534305779023885,-2.1960930935306697
2.54,3.4795178649598917,4.020312687697104,6.1284663953906,-1.19257728776229,1.4063282083518387,1.0259170727105793,4.934892521311576,-1.6365028237514072
2.544,3.4465383606315156,3.576334016756119,4.84820911710547,-1.8742500074558233,0.7334894496842395,0.8754964775560706,3.269491049545711,-1.6406144978345052
2.548,3.013152173550073,3.5146112152729048,3.0658122710058544,-3.1492825097028208,0.01375020971052332,1.098277417639909,1.1041611816243888,-1.9200880840425336
2.552,2.447849234129124,3.7008417612568847,0.8959983915295573,-4.563945546006873,-0.9068737003562967,1.7371335972514264,-1.1623651266818014,-2.02845209662304
2.556,1.9608418215297343,3.801253237024021,-1.3988695881884146,-5.687785090434411,-2.1720028027716665,2.570023189485875,-3.128038714721291,-1.6214564086338843
2.56,1.6242037327071852,3.4645517095944487,-3.4186277118711166,-6.280362603619285,-3.8220298398844887,3.246095333722018,-4.529027048108348,-0.6538029080067274
2.564,1.3870998865283157,2.5235848734600492,-4.729699932738654,-6.350614313254269,-5.753429419866441,3.4883700650503497,-5.315359378844862,0.5893761114628695
2.568,1.159501112930366,1.1001850064252707,-5.027997784464915,-6.09669675360257,-7.731609265892055,3.252502248989867,-5.624040778459109,1.6511008506273805
2.572,0.900716008053279,-0.4359251342651014,-4.2792272026433675,-5.7754810314713545,-9.433145323912864,2.752691168568347,-5.662652695408498,2.1551099726393916
2.576,0.6519410372498928,-1.6333423653941432,-2.7614239024223366,-5.571375802064749,-10.507033454224208,2.349427743562835,-5.569117800147746,2.0158150562825514
2.58,0.4965947127711141,-2.160132051839681,-0.9709842600199636,-5.517962321693409,-10.652997285814239,2.3745572311452525,-5.3223442148137154,1.4953565076334918
2.584,0.4849034840354167,-1.9348100701024853,0.570098277750702,-5.499025767118083,-9.710586049354063,2.98922429592248,-4.75447839234546,1.0739466216940072
2.588,0.5751722515114048,-1.1411480771033657,1.5107524185792678,-5.318948221940876,-7.749129049312174,4.143800322031479,-3.671413355225732,1.2037699707831826
2.592,0.6455210692251145,-0.12342107044465145,1.783111774718043,-4.80294496116287,-5.108265559114152,5.6434759158884935,-2.0188976352808417,2.076921865961101
2.596,0.555381947031401,0.7622263823177704,1.5798275755874018,-3.8917825235044665,-2.3534992736456557,7.256239220761486,-0.00015053922751118165,3.520323849538169
2.6,0.21926905617688153,1.268809465356015,1.2220390364538696,-2.6888021911359887,-0.12811348640007925,8.782740565874377,1.9343359086232024,5.064127252082114
2.604,-0.3532587926657609,1.3120301233049851,0.9953194036527373,-1.4375583003560024,1.0640612394221591,10.052919772060884,3.250297603888305,6.155320040444538
2.608,-1.0748366928791777,0.9507115217811815,1.0420940901817897,-0.42759821052543945,1.057475957323037,10.880186453866799,3.579737645283079,6.409645001130982
2.612,-1.8307733225136684,0.3294384046437282,1.3493339894487075,0.142076028342065,0.11198933635906805,11.036029118966479,2.934119823020678,5.777669296040269
2.616,-2.5248047739250907,-0.3862271606999914,1.8105043519502049,0.27913160770691103,-1.1740204160652485,10.303042245671236,1.7578445120126711,4.551092394067307
2.62,-3.084131256572185,-1.0566459492537725,2.314556168289214,0.2338083123893604,-2.098536275711126,8.60368968096955,0.7660074918708362,3.2210441029487082
2.624,-3.430314278233131,-1.5917553169098007,2.793226405897208,0.4165541030232278,-2.1462253497458317,6.127747517985183,0.6156527344450851,2.2535393670895587
2.628,-3.4535379787205533,-1.9585280227070099,3.203973486235645,1.215370848637199,-1.2086959425663375,3.36238930393243,1.5610862328508968,1.88795991991298
2.632,-3.0287594212441453,-2.1646097366427846,3.486615330846983,2.79216434841815,0.37688105831993113,0.9754768947354503,3.2745657000954114,2.048292209510647
2.636,-2.0941005796756738,-2.233226588349421,3.5352146914827953,4.951124594635608,1.9731986022537389,-0.4214475869341914,4.947094870725108,2.402499825874454
2.64,-0.7433881191550835,-2.172200407868462,3.2252177794647268,7.167572123646254,2.910432713041625,-0.5211147140220447,5.644594326281121,2.546435233682084
2.644,0.7301454420556159,-1.9478046179742439,2.493243475206745,8.779696438566699,2.7651503639169146,0.5432970143216216,4.757108010108433,2.222893822141451
2.648,1.8908573458327003,-1.4908200507458922,1.4218766006108174,9.26852591618788,1.526155044060046,2.2547886729782887,2.327384608074892,1.4784643876288701
2.652,2.3257226122458845,-0.7315984718220747,0.26934696927636637,8.493806009482963,-0.40278309709460114,3.943493863950776,-0.9079474707192912,0.6820969882635293
2.656,1.8412706167668762,0.3447191216209742,-0.5926566084928777,6.765636698655731,-2.359484620811646,5.076049944016731,-3.811283828496112,0.3869542664368879
2.66,0.5886444968988733,1.652472939394782,-0.8185474017034198,4.713399864733618,-3.673197129024363,5.4579583148122275,-5.338595549255367,1.0847889589087032
2.664,-0.9608951403572594,3.00818426230563,-0.23902742436572288,3.0122472517020826,-3.9015454656752446,5.259266815655353,-4.990490020459154,2.956705830440786
2.668,-2.1977621812291503,4.190128022184672,1.0569665517523628,2.1031104270395575,-2.975945802407354,4.866027238017928,-3.0001664949197293,5.733599845053238
2.672,-2.629157275820759,5.040541268920903,2.7653092967319295,2.049246771715249,-1.1957730779956877,4.648928074511472,-0.172681164673417,8.74855988389331
2.676,-2.082347648342607,5.552367568723045,4.513763283844417,2.595497052376728,0.9139206732160465,4.7823785622169215,2.532842134873523,11.179182366488352
2.68,-0.7576932989080363,5.887874369032044,6.034555687429457,3.3809279138397432,2.816752871068881,5.199235277844857,4.455136983447794,12.377303161315645
2.684,0.8867765724024066,6.308150736401672,7.2637289355202626,4.167812771277706,4.166277314762864,5.681787680245382,5.480153762374272,12.142112717128075
2.688,2.3533850635994726,7.033149015096974,8.31554438316133,4.954649940995786,4.908590972217297,6.023711199951431,5.978004892276905,10.814831702706492
2.692,3.318535122476109,8.114826672263908,9.349808404419168,5.919768254514754,5.252130508376612,6.155795120689168,6.485978157652365,9.139343591677672
2.696,3.7470723760239224,9.39272195997994,10.41555645081835,7.239611559069816,5.523256283118264,6.168010466044785,7.342971764047108,7.948445307713546
2.7,3.869017663431842,10.56101913815831,11.37471757737299,8.905485046395826,5.987386801167965,6.232993453889039,8.487744757138882,7.823613521107673
2.704,4.046201366717608,11.32161904036574,11.965664301561857,10.668081258649433,6.730305841350139,6.489220372198536,9.52632393252437,8.88092465066141
2.708,4.5993688467673035,11.534121492991957,11.976964081076341,12.144673852274494,7.646595727994264,6.955020851800544,10.01495434918542,10.776411353205033
2.712,5.680445458292366,11.283891819421859,11.42435731225888,13.02373592529231,8.538556203016348,7.525339208967409,9.76800613166423,12.917295804695767
2.716,7.215588233715475,10.8141055637102,10.602847583761399,13.233061408875226,9.245815535933446,8.045224286091724,8.99369237537108,14.754730429646443
2.72,8.924183027816895,10.358796269669522,9.957740955068104,12.956616799504898,9.714402372384281,8.404491193104397,8.164762905534966,16.001275344512912
2.724,10.398611531784425,9.977735870261625,9.826404472531658,12.484085392629186,9.968055529715963,8.5903128804577,7.697721087901662,16.672920621804654
2.728,11.217878428403216,9.49156966895422,10.203173421444793,11.99401608205298,10.01021125291763,8.67569968537674,7.649953966160676,16.968816970496814
2.732,11.078665189764754,8.575582453236331,10.680336624675238,11.420324613511209,9.742417540974813,8.753577009223378,7.632243494886771,17.080145652880848
2.736,9.911693233033795,6.968920362187479,10.628840707348921,10.504769628976025,8.976460601474654,8.868293834052157,7.010763367691595,17.058175109748753
2.74,7.940031914666269,4.678898883589196,9.53900305541574,9.016250642892157,7.552609683157625,8.986545005914707,5.29375694403364,16.81626289321851
2.744,5.640410593440203,2.0569272496053017,7.336830105183561,6.997035279611243,5.496697951346823,9.020756730210937,2.4812681135540586,16.240695228426645
2.748,3.601273870229847,-0.3129413821784462,4.491390808391999,4.8688234168367375,3.1004396624800563,8.891115585272303,-0.8347382214781245,15.32558294783688
2.7520000000000002,2.3222453181769627,-1.858726420226969,1.832748989789555,3.3004668469644094,0.8552808672092649,8.586824192942043,-3.6921444500113205,14.231319467069579
2.7560000000000002,2.021902431531769,-2.2829489189342125,0.16133605392732542,2.8762745349774295,-0.7554734954810955,8.187068803878221,-5.191803004589351,13.225089454367414
2.7600000000000002,2.5541192663392045,-1.693332550512908,-0.13520589785930828,3.7538918113425175,-1.4860180097929094,7.838074995842395,-4.908635207180116,12.546635361966795
2.7640000000000002,3.497475468855537,-0.5147084755609772,0.7648408469166887,5.5314224051229814,-1.4227909033852633,7.707176007619545,-3.0483928903999624,12.302951819334458
2.7680000000000002,4.364460273881525,0.7457793818484306,2.2693712767491565,7.416853108583659,-0.8879016231788338,7.930987805088368,-0.27960772921426225,12.457090576780104
2.7720000000000002,4.832304957920311,1.7465839154804876,3.729228370036031,8.621173076294358,-0.20983254895218595,8.568859324782757,2.6306178888958214,12.90704974832324
2.7760000000000002,4.88068803198944,2.432012494863171,4.7774329692416035,8.757607802691995,0.47780702494589544,9.566441811796274,5.158756453393114,13.58015713608281
2.7800000000000002,4.757769788526125,2.9601342016552454,5.452642787343551,8.01739313144561,1.2635483965635563,10.738298002250925,7.15283798941136,14.452698338077983
2.7840000000000003,4.800929630160516,3.5046099580352514,6.045288030984855,7.016447558430871,2.28518164550265,11.783653495954692,8.696841971249427,15.471795988583853
2.7880000000000003,5.21492588547009,4.0611819278481995,6.78336157442293,6.397881308107093,3.46990015705941,12.347195327581609,9.842481768479434,16.438988421840996
2.7920000000000003,5.948361608612716,4.419586549890939,7.599756513238572,6.443853955256543,4.4073096511537635,12.138823044763303,10.430198170757686,16.970687698750286
2.7960000000000003,6.743656095162918,4.328323652659121,8.14802417092476,6.937267082466672,4.492026957717837,11.08539824480269,10.158381146095321,16.62279523937569
2.8000000000000003,7.324276656873401,3.742112379385301,8.064604779817842,7.356833863013399,3.2963586422053863,9.44434488358092,8.863780808053193,15.144318503167694
2.8040000000000003,7.591732236430401,2.971319971552701,7.297786038726207,7.273072583853853,0.9526800365633754,7.7893768215028905,6.8098093408353275,12.70038764785098
2.8080000000000003,7.692153347220008,2.5817715401495263,6.24291513024553,6.676457502647247,-1.7475785861470121,6.81518226456833,4.732665702284505,9.884282659481203
2.8120000000000003,7.893924399830722,3.055447645423447,5.5403472362837345,5.998023666715283,-3.6802700518104405,7.002892667824926,3.5199992846963077,7.429086494254603
2.816,8.335478864409442,4.38013634498401,5.6141268281605585,5.777412654370599,-4.032962783347758,8.289896549500714,3.6415367567889847,5.7336104976149045
2.82,8.805331551812518,5.830257468894692,6.234897797658688,6.179398080623832,-2.9068086612588964,9.928757888343739,4.657698584606145,4.472501509270206
2.824,8.706262501388682,6.1333288605593825,6.42163263482032,6.674716631393302,-1.4783168845500665,10.667633755975892,5.158698643424859,2.569533645530317
2.828,7.279044958600598,4.009790466431317,4.831745603348828,6.144951397158467,-1.53668807052129,9.243292683555485,3.2883603865332214,-1.3481439312857866
2.832,4.00787229473911,-1.137109059749409,0.49599699823643206,3.438630556497916,-4.557435499888489,5.002448503874793,-2.3175855043401414,-8.17181515305242
2.836,-0.9958219326463302,-8.742802867165512,-6.490226359664225,-1.8950293731277168,-10.793677953532844,-1.646707281676461,-11.631149807475497,-17.5968901184779
2.84,-6.839448232590516,-17.0977804425689,-14.72624704875876,-9.109876279545713,-18.900554088691777,-9.205113720996103,-22.874715742178772,-27.890325667471636
2.844,-12.037168710534393,-23.899253374612456,-21.91600600662981,-16.327060192817157,-26.35555378490465,-15.548468503579043,-32.97910225863577,-36.353666499059266
2.848,-14.993784698523083,-27.12516910950313,-25.782203602233185,-21.20387714565864,-30.527442124836114,-18.722476991630856,-38.73100785367667,-40.34259738793365
2.852,-14.59527780453875,-25.839857153139626,-25.053209102635066,-21.929112315619367,-29.867913535160476,-17.729952482392854,-38.10151204447147,-38.391362463216296
2.856,-10.665448081208485,-20.563657824960956,-20.036035291423868,-18.06599865450069,-24.62421359850186,-12.945281720144884,-31.126930448376033,-30.894781881135923
2.86,-4.083182759826768,-13.04134535131368,-12.483400649512742,-10.816208622582229,-16.706516035474404,-5.956772260984345,-19.913857164985753,-20.00285279744325
2.864,3.4920264443269247,-5.527218976217299,-4.827852196469957,-2.5582958543762517,-8.78268825360287,1.085989526781627,-7.7624402538473385,-8.757739582658255
2.868,10.170156716621069,0.0709387753596572,0.827961555968316,4.12748240173152,-3.0842846834093116,6.317470752642998,2.1833524925698633,0.1227842732677571
2.872,14.437707594790014,2.816352678880595,3.470583752710712,7.480641850975686,-0.5283134422248379,8.804529286311865,8.106535531578967,5.231140639170921
2.876,15.609307732052333,2.905259903848754,3.362708218887642,7.16722967959132,-0.5585636998301564,8.731392028648411,9.978926181244827,6.783501468676894
2.88,13.970233044821622,1.3581344010814786,1.649044553463174,4.227907813016301,-1.70616829910018,7.099867016206824,9.175548312623448,6.181419550203874
2.884,10.56673355734062,-0.5553527900744297,-0.34510465356627185,0.4437777304840598,-2.4939429003772027,5.1405163265251534,7.530256766404946,5.11008924184731
2.888,6.760549524280352,-1.8681900882267801,-1.721641208252242,-2.526104077118699,-2.1729861185436277,3.7498159821126182,6.3683912170085355,4.668814986959914
2.892,3.730702677123003,-2.2151689205587433,-2.2490321344938717,-3.8175025143275487,-0.9324192401407494,3.20789118219773,5.99449455516914,4.966840488015695
2.896,2.093048397995328,-1.8137623841147086,-2.2038170949721216,-3.5724232569028174,0.4372519708092337,3.2466278413065153,5.827449907020169,5.324310851753437
2.9,1.7790719256167744,-1.2036083217118625,-2.001194066805094,-2.6572944384662414,1.1504899617992939,3.3580449353902213,5.010114545137885,4.889340590032337
2.904,2.1903993657932137,-0.9081297183724821,-1.878242837686546,-2.1021402996882674,0.917125710684946,3.1269040556629886,3.079777797701661,3.26371527327514
2.908,2.5405521101698163,-1.1881129258795244,-1.8054334810210415,-2.5688976609204284,0.04401108068575876,2.4153533200174495,0.3080894386514563,0.7804898692163222
2.912,2.233413017000431,-1.96607597036156,-1.6282687849832556,-4.094380758685021,-0.8473350856227251,1.3484249278444826,-2.452582629987927,-1.705045091026988
2.916,1.116570974543336,-2.9203941156117494,-1.2887413025550707,-6.177885213318699,-1.2635186347298522,0.16298642995475987,-4.286028438463236,-3.355105612928726
2.92,-0.4944637063798183,-3.6739998955689686,-0.9343674185437632,-8.097756130252938,-1.1463457672251813,-0.9475287815107487,-4.743175379219556,-3.866470516240516
2.924,-2.0190243789669635,-3.977644486142499,-0.8441013542842217,-9.267239830466968,-0.8728794993897733,-1.9030277465593448,-4.081041102626546,-3.6649508775323953
2.928,-2.926366628852421,-3.8119174963711706,-1.2254987946898046,-9.447973383905358,-0.9730264382811571,-2.69904389908287,-3.086008798016165,-3.65167974503432
2.932,-3.0089534514600533,-3.3695469270776144,-2.035511295323717,-8.752394299903475,-1.7623155010577394,-3.3286164935976634,-2.6079311907422813,-4.652591826507182
2.936,-2.482344545250662,-2.9440522336484145,-2.965804286539602,-7.494321283988929,-3.1289957813707017,-3.7440156928592243,-3.093841230943033,-6.900534985825066
2.94,-1.8613972498598503,-2.781354756097143,-3.6082127539984157,-5.999379639376303,-4.58557762417637,-3.880810031556774,-4.378650164975139,-9.835641872135598
2.944,-1.6860767140976636,-2.9610364984292166,-3.703767216400533,-4.489430052492501,-5.538066079860211,-3.718636037622809,-5.8258255819668125,-12.354581149260493
2.948,-2.2497238229843184,-3.3765236328494166,-3.3132038202984955,-3.081072565222846,-5.609939811226341,-3.325080349866435,-6.711382298821398,-13.370298777164617
2.952,-3.4623814908203485,-3.8146039220697023,-2.796708879955488,-1.8594125747511665,-4.829524437912157,-2.8394482871645783,-6.623283574387499,-12.379765037245567
2.956,-4.922999980654218,-4.100220003787242,-2.61870232133848,-0.9537237895417663,-3.6033413777545764,-2.403514748065009,-5.661832128055902,-9.739907316310275
2.96,-6.152382610085606,-4.22362143105054,-3.0861708029107513,-0.5467013486675983,-2.505021844638299,-2.09050675468042,-4.350867553155191,-6.50044082259631
2.964,-6.844568399454436,-4.35854397417142,-4.175965522520608,-0.7996364816440775,-1.9976660337525187,-1.882736440239788,-3.340760918680173,-3.8898831757621366
2.968,-6.993883987211392,-4.754731727661797,-5.548686589679538,-1.7404193722051247,-2.241849961429674,-1.7100052702569282,-3.080478678754975,-2.7375878315256372
2.972,-6.841018143745401,-5.561958732422255,-6.739360525656007,-3.197365232616505,-3.064142013231576,-1.520714550352709,-3.6302275665271715,-3.1317573432735166
2.976,-6.682454378126528,-6.688365074119416,-7.405361103749098,-4.828636701304001,-4.078702181167493,-1.3266375082430253,-4.681208333674785,-4.464598759673365
2.98,-6.6694472683474935,-7.798257285107054,-7.49061080382924,-6.246205857588938,-4.886035226858903,-1.1939499419675128,-5.745319987626571,-5.823839418758261
2.984,-6.720602800540102,-8.46496666228222,-7.221223600014658,-7.17074591804227,-5.2443319942035735,-1.1865184714288057,-6.394840671665936,-6.498476746478165
2.988,-6.605800203897237,-8.411222133060882,-6.94754165090643,-7.534815038196819,-5.154487367101172,-1.3049422184124275,-6.433908532785896,-6.3172016663953245
2.992,-6.139006072753075,-7.6952581254538694,-6.931039992552972,-7.473776624644942,-4.821596464881388,-1.4747679162704972,-5.937883808724218,-5.666410239665176
2.996,-5.365464618507033,-6.727453581448193,-7.203623012257807,-7.214724513977021,-4.528001555652155,-1.5969176684716206,-5.169683407266463,-5.210806334255729
3.0,-4.609025606870079,-6.086495055654229,-7.5693708836694755,-6.926122735388768,-4.482544466138476,-1.6273183313036386,-4.436096290881907,-5.501920242682862
3.004,-4.340486825750236,-6.228118109087947,-7.739346990006192,-6.626109603469711,-4.708160453055701,-1.6304726598543295,-3.962643987189102,-6.699113459961911
3.008,-4.9278094427169385,-7.250829830107843,-7.5118310918685225,-6.204055290091289,-5.02223419983879,-1.7575668059686125,-3.8280769598904776,-8.532529784579133
3.012,-6.401379984220503,-8.851216547854225,-6.895996172863645,-5.543118048688118,-5.1199447289468,-2.1519071336759126,-3.9651885010912,-10.48810897555499
